%OpenBCI Raw EXG Data
%Number of channels = 8
%Sample Rate = 250 Hz
%Board = OpenBCI_GUI$BoardCytonSerial
Sample Index, EXG Channel 0, EXG Channel 1, EXG Channel 2, EXG Channel 3, EXG Channel 4, EXG Channel 5, EXG Channel 6, EXG Channel 7, Accel Channel 0, Accel Channel 1, Accel Channel 2, Not Used, Digital Channel 0 (D11), Digital Channel 1 (D12), Digital Channel 2 (D13), Digital Channel 3 (D17), Not Used, Digital Channel 4 (D18), Analog Channel 0, Analog Channel 1, Analog Channel 2, Timestamp, Marker Channel, Timestamp (Formatted)
0.0, 0.0, 0.0, 0.0, 0.0, 0.0, 0.0, 0.0, 0.0, 0.0, 0.0, 0.0, 193.0, 1.0, 1.0, 1.0, 1.0, 0.0, 1.0, 257.0, 257.0, 1.0, 1.7653998256591613E9, 0.0, 2025-12-10 16:50:25.659
1.0, -4186.749957412477, -4199.1551755851715, -4237.644879537211, -4249.111324442783, 3397.375750228852, 3408.6633811787824, -102088.66472109137, -43257.17458214457, 0.0, 0.0, 0.0, 193.0, 1.0, 1.0, 1.0, 1.0, 0.0, 1.0, 257.0, 257.0, 1.0, 1.7653998256762052E9, 0.0, 2025-12-10 16:50:25.676
2.0, -4186.213515545549, -4198.663437207155, -4237.26489988147, -4248.708993042587, 3397.2639915065756, 3408.551622456506, -102088.12827922443, -43256.88400946665, 0.0, 0.0, 0.0, 193.0, 1.0, 1.0, 1.0, 1.0, 0.0, 1.0, 257.0, 257.0, 1.0, 1.7653998256804247E9, 0.0, 2025-12-10 16:50:25.680
3.0, -4186.191163801094, -4198.551678484879, -4236.974327203551, -4248.306661642392, 3396.5934391729165, 3408.0151805895784, -102086.87658153493, -43255.56525654379, 0.0, 0.0, 0.0, 193.0, 1.0, 1.0, 1.0, 1.0, 0.0, 1.0, 257.0, 257.0, 1.0, 1.765399825683169E9, 0.0, 2025-12-10 16:50:25.683
4.0, -4187.286399279404, -4199.758672685465, -4237.98015570404, -4249.446600609613, 3397.375750228852, 3408.775139901059, -102087.27891293513, -43255.96758794398, 0.0, 0.0, 0.0, 193.0, 1.0, 1.0, 1.0, 1.0, 0.0, 1.0, 257.0, 257.0, 1.0, 1.7653998256861787E9, 0.0, 2025-12-10 16:50:25.686
5.0, -4186.97347485703, -4199.423396518636, -4237.846045237308, -4249.2230831650595, 3397.398101973308, 3408.6186776898717, -102087.10009897948, -43256.12405015517, 0.0, 0.0, 0.0, 193.0, 1.0, 1.0, 1.0, 1.0, 0.0, 1.0, 257.0, 257.0, 1.0, 1.765399825689179E9, 0.0, 2025-12-10 16:50:25.689
6.0, -4185.274742278426, -4197.702312195577, -4236.259071380981, -4247.591405819822, 3396.1017007949, 3407.3669800003745, -102085.58018035653, -43254.7605937434, 0.0, 0.0, 0.0, 193.0, 1.0, 1.0, 1.0, 1.0, 0.0, 1.0, 257.0, 257.0, 1.0, 1.7653998256931858E9, 0.0, 2025-12-10 16:50:25.693
7.0, -4185.185335300605, -4197.523498239934, -4235.879091725242, -4247.256129652993, 3395.520555439062, 3406.8528898779023, -102084.46259313377, -43253.64300652063, 0.0, 0.0, 0.0, 193.0, 1.0, 1.0, 1.0, 1.0, 0.0, 1.0, 257.0, 257.0, 1.0, 1.7653998256972053E9, 0.0, 2025-12-10 16:50:25.697
8.0, -4185.498259722979, -4197.679960451122, -4236.035553936428, -4247.323184886359, 3395.319389738964, 3406.607020688894, -102083.68028207782, -43252.905398953604, 0.0, 0.0, 0.0, 193.0, 1.0, 1.0, 1.0, 1.0, 0.0, 1.0, 257.0, 257.0, 1.0, 1.7653998257011824E9, 0.0, 2025-12-10 16:50:25.701
9.0, -4186.682902179111, -4198.819899418342, -4237.354306859292, -4248.708993042587, 3397.062825806478, 3408.2834015230424, -102085.02138674515, -43254.49237280993, 0.0, 0.0, 0.0, 193.0, 1.0, 1.0, 1.0, 1.0, 0.0, 1.0, 257.0, 257.0, 1.0, 1.7653998257062023E9, 0.0, 2025-12-10 16:50:25.706
10.0, -4186.6381986902, -4199.132823840717, -4237.644879537211, -4249.111324442783, 3397.800433373503, 3409.0433608345224, -102085.55782861207, -43255.22998037696, 0.0, 0.0, 0.0, 193.0, 1.0, 1.0, 1.0, 1.0, 0.0, 1.0, 257.0, 257.0, 1.0, 1.765399825710373E9, 0.0, 2025-12-10 16:50:25.710
11.0, -4187.599323701778, -4200.138652341206, -4238.628356293244, -4249.960690732085, 3398.6050961738943, 3409.803320146003, -102085.71429082326, -43255.38644258815, 0.0, 0.0, 0.0, 193.0, 1.0, 1.0, 1.0, 1.0, 0.0, 1.0, 257.0, 257.0, 1.0, 1.7653998257142467E9, 0.0, 2025-12-10 16:50:25.714
12.0, -4188.269876035438, -4200.585687230312, -4238.985984204529, -4250.31831864337, 3398.359226984886, 3409.736264912637, -102085.0437384896, -43254.7605937434, 0.0, 0.0, 0.0, 193.0, 1.0, 1.0, 1.0, 1.0, 0.0, 1.0, 257.0, 257.0, 1.0, 1.7653998257172084E9, 0.0, 2025-12-10 16:50:25.717
13.0, -4186.6381986902, -4198.9763616295295, -4237.331955114836, -4248.664289553677, 3396.6604944062824, 3407.9704771006677, -102083.18854369981, -43253.128916398164, 0.0, 0.0, 0.0, 193.0, 1.0, 1.0, 1.0, 1.0, 0.0, 1.0, 257.0, 257.0, 1.0, 1.7653998257214017E9, 0.0, 2025-12-10 16:50:25.721
14.0, -4187.644027190689, -4200.228059319027, -4238.740115015521, -4250.027745965451, 3398.403930473796, 3409.7586166570923, -102084.70846232277, -43255.09586991023, 0.0, 0.0, 0.0, 193.0, 1.0, 1.0, 1.0, 1.0, 0.0, 1.0, 257.0, 257.0, 1.0, 1.7653998257252257E9, 0.0, 2025-12-10 16:50:25.725
15.0, -4188.9404283690965, -4201.390350030702, -4239.924757471652, -4251.212388421582, 3399.610924674383, 3410.965610857679, -102085.42371814535, -43255.855829221706, 0.0, 0.0, 0.0, 193.0, 1.0, 1.0, 1.0, 1.0, 0.0, 1.0, 257.0, 257.0, 1.0, 1.7653998257292538E9, 0.0, 2025-12-10 16:50:25.729
16.0, -4188.2922277798925, -4200.719797697044, -4239.03068769344, -4250.295966898914, 3398.3368752404303, 3409.6021544459054, -102083.45676463327, -43253.710061754, 0.0, 0.0, 0.0, 193.0, 1.0, 1.0, 1.0, 1.0, 0.0, 1.0, 257.0, 257.0, 1.0, 1.765399825733248E9, 0.0, 2025-12-10 16:50:25.733
17.0, -4186.682902179111, -4199.043416862895, -4237.399010348202, -4248.641937809221, 3396.705197895193, 3407.9928288451233, -102081.51216286566, -43251.8101634753, 0.0, 0.0, 0.0, 193.0, 1.0, 1.0, 1.0, 1.0, 0.0, 1.0, 257.0, 257.0, 1.0, 1.765399825738281E9, 0.0, 2025-12-10 16:50:25.738
18.0, -4187.644027190689, -4200.049245363384, -4238.561301059878, -4249.938338987629, 3398.314523495975, 3409.736264912637, -102082.8979710219, -43253.687710009544, 0.0, 0.0, 0.0, 193.0, 1.0, 1.0, 1.0, 1.0, 0.0, 1.0, 257.0, 257.0, 1.0, 1.7653998257422636E9, 0.0, 2025-12-10 16:50:25.742
19.0, -4187.867544635242, -4200.250411063482, -4238.896577226707, -4250.206559921094, 3398.739206640626, 3410.160948057288, -102082.76386055516, -43253.710061754, 0.0, 0.0, 0.0, 193.0, 1.0, 1.0, 1.0, 1.0, 0.0, 1.0, 257.0, 257.0, 1.0, 1.7653998257452712E9, 0.0, 2025-12-10 16:50:25.745
20.0, -4187.666378935144, -4200.026893618929, -4238.471894082057, -4249.848932009809, 3397.8227851179586, 3409.2668782790756, -102081.28864542111, -43252.145439642125, 0.0, 0.0, 0.0, 193.0, 1.0, 1.0, 1.0, 1.0, 0.0, 1.0, 257.0, 257.0, 1.0, 1.7653998257495332E9, 0.0, 2025-12-10 16:50:25.749
21.0, -4186.057053334362, -4198.506974995968, -4236.639051036722, -4248.150199431205, 3395.9228868392574, 3407.3446282559194, -102079.18758144231, -43250.08907915224, 0.0, 0.0, 0.0, 193.0, 1.0, 1.0, 1.0, 1.0, 0.0, 1.0, 257.0, 257.0, 1.0, 1.7653998257532887E9, 0.0, 2025-12-10 16:50:25.753
22.0, -4185.654721934166, -4198.171698829138, -4236.348478358803, -4247.859626753286, 3396.1464042838106, 3407.501090467106, -102079.27698842014, -43250.42435531907, 0.0, 0.0, 0.0, 193.0, 1.0, 1.0, 1.0, 1.0, 0.0, 1.0, 257.0, 257.0, 1.0, 1.7653998257573109E9, 0.0, 2025-12-10 16:50:25.757
23.0, -4186.459384734558, -4198.931658140619, -4237.309603370381, -4248.641937809221, 3397.1745845287546, 3408.5963259454165, -102079.83578203151, -43251.27372160837, 0.0, 0.0, 0.0, 193.0, 1.0, 1.0, 1.0, 1.0, 0.0, 1.0, 257.0, 257.0, 1.0, 1.7653998257612891E9, 0.0, 2025-12-10 16:50:25.761
24.0, -4186.794660901387, -4199.199879074083, -4237.466065581568, -4248.664289553677, 3396.9287153397463, 3408.3057532674975, -102078.9417122533, -43250.31259659679, 0.0, 0.0, 0.0, 193.0, 1.0, 1.0, 1.0, 1.0, 0.0, 1.0, 257.0, 257.0, 1.0, 1.7653998257663069E9, 0.0, 2025-12-10 16:50:25.766
25.0, -4187.219344046038, -4199.557506985368, -4237.778990003942, -4249.066620953872, 3397.1075292953888, 3408.48456722314, -102078.67349131985, -43250.044375663325, 0.0, 0.0, 0.0, 193.0, 1.0, 1.0, 1.0, 1.0, 0.0, 1.0, 257.0, 257.0, 1.0, 1.765399825770302E9, 0.0, 2025-12-10 16:50:25.770
26.0, -4186.995826601485, -4199.40104477418, -4237.868396981764, -4249.088972698328, 3397.5545641844947, 3408.931602112246, -102078.91936050885, -43250.60316927471, 0.0, 0.0, 0.0, 193.0, 1.0, 1.0, 1.0, 1.0, 0.0, 1.0, 257.0, 257.0, 1.0, 1.7653998257733083E9, 0.0, 2025-12-10 16:50:25.773
27.0, -4187.532268468412, -4200.004541874474, -4238.561301059878, -4249.915987243175, 3398.448633962707, 3409.8927271238244, -102079.45580237577, -43251.4078320751, 0.0, 0.0, 0.0, 193.0, 1.0, 1.0, 1.0, 1.0, 0.0, 1.0, 257.0, 257.0, 1.0, 1.765399825777316E9, 0.0, 2025-12-10 16:50:25.777
28.0, -4187.219344046038, -4199.490451752002, -4237.98015570404, -4249.156027931694, 3397.5545641844947, 3408.9539538567014, -102077.95823549727, -43249.86556170769, 0.0, 0.0, 0.0, 193.0, 1.0, 1.0, 1.0, 1.0, 0.0, 1.0, 257.0, 257.0, 1.0, 1.7653998257813935E9, 0.0, 2025-12-10 16:50:25.781
29.0, -4186.772309156931, -4198.886954651708, -4237.309603370381, -4248.306661642392, 3396.3699217283634, 3407.7916631450253, -102076.48302036322, -43248.39034657364, 0.0, 0.0, 0.0, 193.0, 1.0, 1.0, 1.0, 1.0, 0.0, 1.0, 257.0, 257.0, 1.0, 1.765399825785376E9, 0.0, 2025-12-10 16:50:25.785
30.0, -4187.398158001681, -4199.669265707644, -4238.136617915227, -4249.200731420605, 3397.5322124400395, 3408.9092503677907, -102077.46649711925, -43249.642044263135, 0.0, 0.0, 0.0, 193.0, 1.0, 1.0, 1.0, 1.0, 0.0, 1.0, 257.0, 257.0, 1.0, 1.7653998257893348E9, 0.0, 2025-12-10 16:50:25.789
31.0, -4188.046358590885, -4200.473928508035, -4239.03068769344, -4250.27361515446, 3398.8733171073577, 3410.183299801743, -102078.4946773642, -43250.89374195263, 0.0, 0.0, 0.0, 193.0, 1.0, 1.0, 1.0, 1.0, 0.0, 1.0, 257.0, 257.0, 1.0, 1.7653998257943544E9, 0.0, 2025-12-10 16:50:25.794
32.0, -4187.6887306796, -4199.982190130018, -4238.471894082057, -4249.714821543076, 3398.0463025625113, 3409.445692234718, -102077.10886920796, -43249.46323030749, 0.0, 0.0, 0.0, 193.0, 1.0, 1.0, 1.0, 1.0, 0.0, 1.0, 257.0, 257.0, 1.0, 1.7653998257983575E9, 0.0, 2025-12-10 16:50:25.798
33.0, -4187.576971957323, -4199.803376174375, -4238.158969659683, -4249.379545376247, 3397.509860695584, 3408.9092503677907, -102075.85717151847, -43248.25623610691, 0.0, 0.0, 0.0, 193.0, 1.0, 1.0, 1.0, 1.0, 0.0, 1.0, 257.0, 257.0, 1.0, 1.7653998258013532E9, 0.0, 2025-12-10 16:50:25.801
34.0, -4187.286399279404, -4199.4457482630905, -4237.868396981764, -4249.066620953872, 3397.442805462218, 3408.8198433899697, -102075.52189535165, -43248.25623610691, 0.0, 0.0, 0.0, 193.0, 1.0, 1.0, 1.0, 1.0, 0.0, 1.0, 257.0, 257.0, 1.0, 1.7653998258054378E9, 0.0, 2025-12-10 16:50:25.805
35.0, -4187.0628818348505, -4199.311637796359, -4237.913100470674, -4249.2230831650595, 3397.934543840235, 3409.222174790165, -102075.70070930729, -43248.725622740465, 0.0, 0.0, 0.0, 193.0, 1.0, 1.0, 1.0, 1.0, 0.0, 1.0, 257.0, 257.0, 1.0, 1.7653998258093731E9, 0.0, 2025-12-10 16:50:25.809
36.0, -4188.068710335339, -4200.272762807937, -4238.784818504431, -4250.094801198817, 3398.649799662805, 3409.9597823571903, -102075.85717151847, -43248.97149192947, 0.0, 0.0, 0.0, 193.0, 1.0, 1.0, 1.0, 1.0, 0.0, 1.0, 257.0, 257.0, 1.0, 1.7653998258133824E9, 0.0, 2025-12-10 16:50:25.813
37.0, -4188.0016551019735, -4200.026893618929, -4238.494245826512, -4249.491304098524, 3397.733378140137, 3408.9539538567014, -102074.51606685115, -43247.540980284335, 0.0, 0.0, 0.0, 193.0, 1.0, 1.0, 1.0, 1.0, 0.0, 1.0, 257.0, 257.0, 1.0, 1.7653998258175209E9, 0.0, 2025-12-10 16:50:25.817
38.0, -4186.928771368119, -4198.886954651708, -4237.488417326023, -4248.396068620214, 3396.682846150738, 3407.9257736117574, -102073.26436916165, -43246.356337828205, 0.0, 0.0, 0.0, 193.0, 1.0, 1.0, 1.0, 1.0, 0.0, 1.0, 257.0, 257.0, 1.0, 1.7653998258213913E9, 0.0, 2025-12-10 16:50:25.821
39.0, -4186.325274267826, -4198.395216273691, -4237.019030692462, -4248.12784768675, 3396.8169566174697, 3408.0822358229443, -102073.17496218384, -43246.64691050612, 0.0, 0.0, 0.0, 193.0, 1.0, 1.0, 1.0, 1.0, 0.0, 1.0, 257.0, 257.0, 1.0, 1.765399825826433E9, 0.0, 2025-12-10 16:50:25.826
40.0, -4186.034701589907, -4198.104643595772, -4236.706106270088, -4247.881978497741, 3396.548735684006, 3407.9257736117574, -102072.30324415008, -43245.97635817246, 0.0, 0.0, 0.0, 193.0, 1.0, 1.0, 1.0, 1.0, 0.0, 1.0, 257.0, 257.0, 1.0, 1.76539982582944E9, 0.0, 2025-12-10 16:50:25.829
41.0, -4185.185335300605, -4197.188222073105, -4235.610870791777, -4246.652632552699, 3395.0735205499554, 3406.4282067332515, -102070.13512493791, -43243.6070732602, 0.0, 0.0, 0.0, 193.0, 1.0, 1.0, 1.0, 1.0, 0.0, 1.0, 257.0, 257.0, 1.0, 1.7653998258334217E9, 0.0, 2025-12-10 16:50:25.833
42.0, -4184.000692844474, -4196.025931361429, -4234.426228335647, -4245.378583118747, 3393.777119371548, 3405.131805554844, -102068.54815108159, -43242.1095063817, 0.0, 0.0, 0.0, 193.0, 1.0, 1.0, 1.0, 1.0, 0.0, 1.0, 257.0, 257.0, 1.0, 1.7653998258374796E9, 0.0, 2025-12-10 16:50:25.837
43.0, -4184.671245178133, -4196.87529765073, -4235.499112069501, -4246.518522085968, 3395.319389738964, 3406.67407592226, -102069.91160749336, -43243.8082389603, 0.0, 0.0, 0.0, 193.0, 1.0, 1.0, 1.0, 1.0, 0.0, 1.0, 257.0, 257.0, 1.0, 1.7653998258414476E9, 0.0, 2025-12-10 16:50:25.841
44.0, -4186.951123112574, -4199.199879074083, -4237.98015570404, -4248.954862231596, 3397.867488606869, 3409.2445265346205, -102072.03502321661, -43246.11046863919, 0.0, 0.0, 0.0, 193.0, 1.0, 1.0, 1.0, 1.0, 0.0, 1.0, 257.0, 257.0, 1.0, 1.7653998258454273E9, 0.0, 2025-12-10 16:50:25.845
45.0, -4187.755785912966, -4199.9151348966525, -4238.494245826512, -4249.401897120702, 3397.867488606869, 3409.2668782790756, -102071.49858134969, -43245.574026772265, 0.0, 0.0, 0.0, 193.0, 1.0, 1.0, 1.0, 1.0, 0.0, 1.0, 257.0, 257.0, 1.0, 1.765399825850464E9, 0.0, 2025-12-10 16:50:25.850
46.0, -4187.800489401876, -4199.803376174375, -4238.3601353597805, -4249.267786653971, 3397.5992676734054, 3408.8868986233356, -102070.82802901603, -43245.05993664979, 0.0, 0.0, 0.0, 193.0, 1.0, 1.0, 1.0, 1.0, 0.0, 1.0, 257.0, 257.0, 1.0, 1.765399825853452E9, 0.0, 2025-12-10 16:50:25.853
47.0, -4186.571143456834, -4198.68578895161, -4237.354306859292, -4248.329013386848, 3396.9510670842014, 3408.2834015230424, -102070.06806970455, -43244.61290176069, 0.0, 0.0, 0.0, 193.0, 1.0, 1.0, 1.0, 1.0, 0.0, 1.0, 257.0, 257.0, 1.0, 1.765399825856493E9, 0.0, 2025-12-10 16:50:25.856
48.0, -4187.934599868608, -4200.2057075745715, -4238.918928971163, -4249.938338987629, 3398.8286136184474, 3410.160948057288, -102071.5432848386, -43246.28928259484, 0.0, 0.0, 0.0, 193.0, 1.0, 1.0, 1.0, 1.0, 0.0, 1.0, 257.0, 257.0, 1.0, 1.765399825861447E9, 0.0, 2025-12-10 16:50:25.861
49.0, -4189.20864930256, -4201.502108752979, -4240.148274916205, -4251.1006296993055, 3399.7897386300256, 3411.0773695799553, -102071.72209879424, -43246.37868957266, 0.0, 0.0, 0.0, 193.0, 1.0, 1.0, 1.0, 1.0, 0.0, 1.0, 257.0, 257.0, 1.0, 1.7653998258655028E9, 0.0, 2025-12-10 16:50:25.865
50.0, -4189.655684191666, -4201.9714953865405, -4240.5506063164, -4251.45825761059, 3399.901497352302, 3411.2338317911426, -102071.40917437186, -43246.13282038365, 0.0, 0.0, 0.0, 193.0, 1.0, 1.0, 1.0, 1.0, 0.0, 1.0, 257.0, 257.0, 1.0, 1.7653998258694885E9, 0.0, 2025-12-10 16:50:25.869
51.0, -4190.482698736513, -4202.843213420298, -4241.6011383058, -4252.5087895999895, 3401.220250275165, 3412.5749364584613, -102072.61616857245, -43247.63038726216, 0.0, 0.0, 0.0, 193.0, 1.0, 1.0, 1.0, 1.0, 0.0, 1.0, 257.0, 257.0, 1.0, 1.7653998258734884E9, 0.0, 2025-12-10 16:50:25.873
52.0, -4189.856849891764, -4202.284419808915, -4240.997641205507, -4252.061754710884, 3401.019084575067, 3412.396122502819, -102072.01267147216, -43247.29511109533, 0.0, 0.0, 0.0, 193.0, 1.0, 1.0, 1.0, 1.0, 0.0, 1.0, 257.0, 257.0, 1.0, 1.765399825877508E9, 0.0, 2025-12-10 16:50:25.877
53.0, -4189.476870236024, -4201.7926814308985, -4240.371792360758, -4251.324147143859, 3399.9462008412124, 3411.2785352800533, -102070.42569761584, -43245.64108200563, 0.0, 0.0, 0.0, 193.0, 1.0, 1.0, 1.0, 1.0, 0.0, 1.0, 257.0, 257.0, 1.0, 1.7653998258815033E9, 0.0, 2025-12-10 16:50:25.881
54.0, -4189.253352791471, -4201.3232947973365, -4240.014164449473, -4250.832408765842, 3399.1638897852768, 3410.384465501841, -102069.17399992634, -43244.50114303841, 0.0, 0.0, 0.0, 193.0, 1.0, 1.0, 1.0, 1.0, 0.0, 1.0, 257.0, 257.0, 1.0, 1.7653998258844986E9, 0.0, 2025-12-10 16:50:25.884
55.0, -4186.839364390297, -4199.043416862895, -4237.689583026121, -4248.641937809221, 3396.995770573112, 3408.3951602453185, -102067.02823245863, -43242.48948603743, 0.0, 0.0, 0.0, 193.0, 1.0, 1.0, 1.0, 1.0, 0.0, 1.0, 257.0, 257.0, 1.0, 1.765399825889531E9, 0.0, 2025-12-10 16:50:25.889
56.0, -4187.912248124153, -4200.250411063482, -4239.07539118235, -4250.094801198817, 3398.8286136184474, 3410.2056515461986, -102068.48109584823, -43244.32232908277, 0.0, 0.0, 0.0, 193.0, 1.0, 1.0, 1.0, 1.0, 0.0, 1.0, 257.0, 257.0, 1.0, 1.7653998258935232E9, 0.0, 2025-12-10 16:50:25.893
57.0, -4189.253352791471, -4201.54681224189, -4240.371792360758, -4251.346498888314, 3400.0132560745787, 3411.323238768964, -102068.88342724842, -43244.79171571633, 0.0, 0.0, 0.0, 193.0, 1.0, 1.0, 1.0, 1.0, 0.0, 1.0, 257.0, 257.0, 1.0, 1.7653998258975265E9, 0.0, 2025-12-10 16:50:25.897
58.0, -4188.091062079795, -4200.272762807937, -4239.0083359489845, -4249.915987243175, 3398.2251165181538, 3409.5574509569947, -102066.64825280289, -43242.40007905961, 0.0, 0.0, 0.0, 193.0, 1.0, 1.0, 1.0, 1.0, 0.0, 1.0, 257.0, 257.0, 1.0, 1.765399825901536E9, 0.0, 2025-12-10 16:50:25.901
59.0, -4188.024006846429, -4200.228059319027, -4238.985984204529, -4250.005394220995, 3398.359226984886, 3409.6468579348157, -102066.5364940806, -43242.645948248624, 0.0, 0.0, 0.0, 193.0, 1.0, 1.0, 1.0, 1.0, 0.0, 1.0, 257.0, 257.0, 1.0, 1.7653998259055247E9, 0.0, 2025-12-10 16:50:25.905
60.0, -4189.029835346918, -4201.435053519614, -4240.327088871848, -4251.3912023772245, 3400.125014796855, 3411.412645746785, -102067.9893574702, -43244.47879129396, 0.0, 0.0, 0.0, 193.0, 1.0, 1.0, 1.0, 1.0, 0.0, 1.0, 257.0, 257.0, 1.0, 1.765399825909696E9, 0.0, 2025-12-10 16:50:25.909
61.0, -4190.6391609477, -4202.999675631485, -4241.802304005898, -4252.88876925573, 3401.3990642308077, 3412.731398669648, -102068.90577899288, -43245.39521281663, 0.0, 0.0, 0.0, 193.0, 1.0, 1.0, 1.0, 1.0, 0.0, 1.0, 257.0, 257.0, 1.0, 1.7653998259125464E9, 0.0, 2025-12-10 16:50:25.912
62.0, -4190.214477803049, -4202.396178531191, -4241.0646964388725, -4252.12880994425, 3400.1697182857656, 3411.457349235696, -102067.20704641427, -43243.58472151574, 0.0, 0.0, 0.0, 193.0, 1.0, 1.0, 1.0, 1.0, 0.0, 1.0, 257.0, 257.0, 1.0, 1.7653998259165835E9, 0.0, 2025-12-10 16:50:25.916
63.0, -4187.286399279404, -4199.4457482630905, -4237.913100470674, -4249.066620953872, 3397.129881039844, 3408.3281050119526, -102063.92133997934, -43240.43312554755, 0.0, 0.0, 0.0, 193.0, 1.0, 1.0, 1.0, 1.0, 0.0, 1.0, 257.0, 257.0, 1.0, 1.7653998259215832E9, 0.0, 2025-12-10 16:50:25.921
64.0, -4187.465213235047, -4199.758672685465, -4238.382487104236, -4249.64776630971, 3398.0463025625113, 3409.3115817679864, -102064.6365958019, -43241.55071277031, 0.0, 0.0, 0.0, 193.0, 1.0, 1.0, 1.0, 1.0, 0.0, 1.0, 257.0, 257.0, 1.0, 1.7653998259256E9, 0.0, 2025-12-10 16:50:25.925
65.0, -4189.342759769293, -4201.613867475256, -4240.394144105214, -4251.547664588412, 3400.1026630523997, 3411.412645746785, -102066.13416268042, -43243.09298313773, 0.0, 0.0, 0.0, 193.0, 1.0, 1.0, 1.0, 1.0, 0.0, 1.0, 257.0, 257.0, 1.0, 1.7653998259296017E9, 0.0, 2025-12-10 16:50:25.929
66.0, -4189.320408024837, -4201.5915157308, -4240.170626660661, -4251.167684932671, 3399.454462463196, 3410.7197416686704, -102064.90481673538, -43241.79658195932, 0.0, 0.0, 0.0, 193.0, 1.0, 1.0, 1.0, 1.0, 0.0, 1.0, 257.0, 257.0, 1.0, 1.7653998259335897E9, 0.0, 2025-12-10 16:50:25.933
67.0, -4188.135765568705, -4200.3845215302135, -4238.851873737797, -4249.938338987629, 3398.158061284788, 3409.378637001352, -102063.18373241232, -43240.23195984745, 0.0, 0.0, 0.0, 193.0, 1.0, 1.0, 1.0, 1.0, 0.0, 1.0, 257.0, 257.0, 1.0, 1.765399825937633E9, 0.0, 2025-12-10 16:50:25.937
68.0, -4186.682902179111, -4198.954009885074, -4237.555472559389, -4248.597234320311, 3397.2639915065756, 3408.48456722314, -102062.13320042292, -43239.47200053597, 0.0, 0.0, 0.0, 193.0, 1.0, 1.0, 1.0, 1.0, 0.0, 1.0, 257.0, 257.0, 1.0, 1.7653998259406147E9, 0.0, 2025-12-10 16:50:25.940
69.0, -4187.755785912966, -4200.004541874474, -4238.6507080377, -4249.670118054166, 3398.381578729341, 3409.6021544459054, -102062.78140101212, -43240.343718569726, 0.0, 0.0, 0.0, 193.0, 1.0, 1.0, 1.0, 1.0, 0.0, 1.0, 257.0, 257.0, 1.0, 1.765399825944638E9, 0.0, 2025-12-10 16:50:25.944
70.0, -4188.627503946723, -4200.920963397141, -4239.321260371359, -4250.36302213228, 3398.649799662805, 3409.9374306127347, -102062.4908283342, -43240.03079414735, 0.0, 0.0, 0.0, 193.0, 1.0, 1.0, 1.0, 1.0, 0.0, 1.0, 257.0, 257.0, 1.0, 1.7653998259498606E9, 0.0, 2025-12-10 16:50:25.949
71.0, -4188.985131858008, -4201.435053519614, -4239.768295260465, -4250.832408765842, 3398.8286136184474, 3410.116244568377, -102062.40142135638, -43240.053145891805, 0.0, 0.0, 0.0, 193.0, 1.0, 1.0, 1.0, 1.0, 0.0, 1.0, 257.0, 257.0, 1.0, 1.7653998259536643E9, 0.0, 2025-12-10 16:50:25.953
72.0, -4189.096890580284, -4201.680922708621, -4240.170626660661, -4251.301795399403, 3399.5438694410173, 3410.965610857679, -102063.04962194558, -43240.969567414475, 0.0, 0.0, 0.0, 193.0, 1.0, 1.0, 1.0, 1.0, 0.0, 1.0, 257.0, 257.0, 1.0, 1.7653998259576254E9, 0.0, 2025-12-10 16:50:25.957
73.0, -4188.783966157909, -4201.435053519614, -4240.014164449473, -4251.1006296993055, 3399.7226833966597, 3411.1667765577768, -102062.73669752321, -43240.835456947745, 0.0, 0.0, 0.0, 193.0, 1.0, 1.0, 1.0, 1.0, 0.0, 1.0, 257.0, 257.0, 1.0, 1.7653998259616554E9, 0.0, 2025-12-10 16:50:25.961
74.0, -4189.275704535926, -4201.837384919809, -4240.438847594124, -4251.301795399403, 3399.745035141115, 3411.0103143465894, -102062.04379344509, -43240.14255286963, 0.0, 0.0, 0.0, 193.0, 1.0, 1.0, 1.0, 1.0, 0.0, 1.0, 257.0, 257.0, 1.0, 1.765399825965652E9, 0.0, 2025-12-10 16:50:25.965
75.0, -4188.158117313161, -4200.608038974767, -4239.209501649082, -4249.893635498719, 3398.023950818056, 3409.378637001352, -102060.05448818857, -43238.1532476131, 0.0, 0.0, 0.0, 193.0, 1.0, 1.0, 1.0, 1.0, 0.0, 1.0, 257.0, 257.0, 1.0, 1.7653998259686527E9, 0.0, 2025-12-10 16:50:25.968
76.0, -4187.867544635242, -4200.362169785759, -4239.03068769344, -4249.826580265353, 3398.2027647736986, 3409.57980270145, -102060.07683993303, -43238.42146854657, 0.0, 0.0, 0.0, 193.0, 1.0, 1.0, 1.0, 1.0, 0.0, 1.0, 257.0, 257.0, 1.0, 1.76539982597265E9, 0.0, 2025-12-10 16:50:25.972
77.0, -4187.308751023859, -4199.758672685465, -4238.5389493154225, -4249.424248865157, 3397.934543840235, 3409.3115817679864, -102059.51804632164, -43238.242654590926, 0.0, 0.0, 0.0, 193.0, 1.0, 1.0, 1.0, 1.0, 0.0, 1.0, 257.0, 257.0, 1.0, 1.7653998259776416E9, 0.0, 2025-12-10 16:50:25.977
78.0, -4188.962780113552, -4201.367998286248, -4240.058867938384, -4250.877112254752, 3399.2309450186426, 3410.6303346908494, -102060.14389516639, -43238.868503435675, 0.0, 0.0, 0.0, 193.0, 1.0, 1.0, 1.0, 1.0, 0.0, 1.0, 257.0, 257.0, 1.0, 1.7653998259816692E9, 0.0, 2025-12-10 16:50:25.981
79.0, -4189.722739425032, -4202.060902364362, -4240.617661549766, -4251.45825761059, 3399.4321107187407, 3410.8762038798577, -102059.92037772184, -43238.66733773558, 0.0, 0.0, 0.0, 193.0, 1.0, 1.0, 1.0, 1.0, 0.0, 1.0, 257.0, 257.0, 1.0, 1.7653998259856772E9, 0.0, 2025-12-10 16:50:25.985
80.0, -4188.135765568705, -4200.429225019125, -4239.120094671261, -4249.893635498719, 3398.1133577958776, 3409.512747468084, -102058.37810735442, -43237.393288301624, 0.0, 0.0, 0.0, 193.0, 1.0, 1.0, 1.0, 1.0, 0.0, 1.0, 257.0, 257.0, 1.0, 1.7653998259896762E9, 0.0, 2025-12-10 16:50:25.989
81.0, -4187.509916723957, -4199.959838385563, -4238.69541152661, -4249.6030628208, 3398.2027647736986, 3409.6468579348157, -102058.10988642096, -43237.46034353499, 0.0, 0.0, 0.0, 193.0, 1.0, 1.0, 1.0, 1.0, 0.0, 1.0, 257.0, 257.0, 1.0, 1.7653998259936976E9, 0.0, 2025-12-10 16:50:25.993
82.0, -4185.833535889809, -4198.26110580696, -4236.8402167368195, -4247.658461053188, 3396.2134595171765, 3407.6352009338384, -102055.5394358086, -43234.91224466709, 0.0, 0.0, 0.0, 193.0, 1.0, 1.0, 1.0, 1.0, 0.0, 1.0, 257.0, 257.0, 1.0, 1.765399825996735E9, 0.0, 2025-12-10 16:50:25.996
83.0, -4184.760652155955, -4197.188222073105, -4235.543815558412, -4246.295004641414, 3394.514726938573, 3405.869413121869, -102053.28190961861, -43232.54295975482, 0.0, 0.0, 0.0, 193.0, 1.0, 1.0, 1.0, 1.0, 0.0, 1.0, 257.0, 257.0, 1.0, 1.7653998260007446E9, 0.0, 2025-12-10 16:50:26.000
84.0, -4186.30292252337, -4198.752844184976, -4237.17549290365, -4248.1054959422945, 3396.3699217283634, 3407.76931140057, -102054.91358696386, -43234.398154544615, 0.0, 0.0, 0.0, 193.0, 1.0, 1.0, 1.0, 1.0, 0.0, 1.0, 257.0, 257.0, 1.0, 1.7653998260057275E9, 0.0, 2025-12-10 16:50:26.005
85.0, -4186.861716134753, -4199.311637796359, -4237.913100470674, -4248.9325104871405, 3397.487508951129, 3408.775139901059, -102055.87471197543, -43235.62750048965, 0.0, 0.0, 0.0, 193.0, 1.0, 1.0, 1.0, 1.0, 0.0, 1.0, 257.0, 257.0, 1.0, 1.765399826009694E9, 0.0, 2025-12-10 16:50:26.009
86.0, -4186.526439967924, -4198.864602907253, -4237.376658603747, -4248.485475598035, 3396.839308361925, 3408.2610497785868, -102054.73477300821, -43234.62167198917, 0.0, 0.0, 0.0, 193.0, 1.0, 1.0, 1.0, 1.0, 0.0, 1.0, 257.0, 257.0, 1.0, 1.7653998260137262E9, 0.0, 2025-12-10 16:50:26.013
87.0, -4187.129937068216, -4199.423396518636, -4237.823693492853, -4248.820751764864, 3396.8169566174697, 3408.216346289676, -102054.06422067455, -43233.95111965551, 0.0, 0.0, 0.0, 193.0, 1.0, 1.0, 1.0, 1.0, 0.0, 1.0, 257.0, 257.0, 1.0, 1.7653998260177236E9, 0.0, 2025-12-10 16:50:26.017
88.0, -4186.839364390297, -4199.1551755851715, -4237.711934770577, -4248.641937809221, 3396.6381426618273, 3408.059884078489, -102053.59483404098, -43233.615843488675, 0.0, 0.0, 0.0, 193.0, 1.0, 1.0, 1.0, 1.0, 0.0, 1.0, 257.0, 257.0, 1.0, 1.7653998260217288E9, 0.0, 2025-12-10 16:50:26.021
89.0, -4186.951123112574, -4199.468100007546, -4238.047210937406, -4249.111324442783, 3397.643971162316, 3409.0210090900673, -102054.31008986356, -43234.77813420035, 0.0, 0.0, 0.0, 193.0, 1.0, 1.0, 1.0, 1.0, 0.0, 1.0, 257.0, 257.0, 1.0, 1.7653998260248055E9, 0.0, 2025-12-10 16:50:26.024
90.0, -4187.264047534949, -4199.713969196555, -4238.270728381959, -4249.290138398425, 3397.9792473291454, 3409.3115817679864, -102054.06422067455, -43234.57696850025, 0.0, 0.0, 0.0, 193.0, 1.0, 1.0, 1.0, 1.0, 0.0, 1.0, 257.0, 257.0, 1.0, 1.7653998260287824E9, 0.0, 2025-12-10 16:50:26.028
91.0, -4187.934599868608, -4200.317466296848, -4238.717763271065, -4249.714821543076, 3398.001599073601, 3409.3339335124415, -102053.52777880762, -43233.906416166596, 0.0, 0.0, 0.0, 193.0, 1.0, 1.0, 1.0, 1.0, 0.0, 1.0, 257.0, 257.0, 1.0, 1.7653998260327857E9, 0.0, 2025-12-10 16:50:26.032
92.0, -4186.392329501192, -4198.797547673887, -4237.287251625926, -4248.17255117566, 3396.325218239453, 3407.6575526782935, -102051.60552878446, -43232.09592486572, 0.0, 0.0, 0.0, 193.0, 1.0, 1.0, 1.0, 1.0, 0.0, 1.0, 257.0, 257.0, 1.0, 1.7653998260377772E9, 0.0, 2025-12-10 16:50:26.037
93.0, -4185.185335300605, -4197.5905534733, -4236.348478358803, -4247.256129652993, 3395.6323141613384, 3406.9422968557237, -102050.71145900626, -43231.58183474324, 0.0, 0.0, 0.0, 193.0, 1.0, 1.0, 1.0, 1.0, 0.0, 1.0, 257.0, 257.0, 1.0, 1.7653998260418048E9, 0.0, 2025-12-10 16:50:26.041
94.0, -4184.157155055661, -4196.540021483901, -4235.2532428804925, -4246.183245919138, 3394.6711891497603, 3406.0035235886007, -102049.41505782785, -43230.39719228711, 0.0, 0.0, 0.0, 193.0, 1.0, 1.0, 1.0, 1.0, 0.0, 1.0, 257.0, 257.0, 1.0, 1.7653998260447807E9, 0.0, 2025-12-10 16:50:26.044
95.0, -4184.671245178133, -4197.031759861918, -4235.476760325046, -4246.451466852602, 3394.6264856608495, 3405.9141166107797, -102048.69980200527, -43229.637232975634, 0.0, 0.0, 0.0, 193.0, 1.0, 1.0, 1.0, 1.0, 0.0, 1.0, 257.0, 257.0, 1.0, 1.765399826048778E9, 0.0, 2025-12-10 16:50:26.048
96.0, -4185.654721934166, -4197.992884873496, -4236.281423125437, -4247.367888375269, 3395.38644497233, 3406.7187794111705, -102049.0350781721, -43229.994860886916, 0.0, 0.0, 0.0, 193.0, 1.0, 1.0, 1.0, 1.0, 0.0, 1.0, 257.0, 257.0, 1.0, 1.7653998260528011E9, 0.0, 2025-12-10 16:50:26.052
97.0, -4185.788832400898, -4198.216402318049, -4236.683754525632, -4247.859626753286, 3396.325218239453, 3407.6352009338384, -102049.70563050576, -43231.045392876316, 0.0, 0.0, 0.0, 193.0, 1.0, 1.0, 1.0, 1.0, 0.0, 1.0, 257.0, 257.0, 1.0, 1.7653998260568202E9, 0.0, 2025-12-10 16:50:26.056
98.0, -4185.900591123175, -4198.3281610403255, -4236.862568481275, -4248.083144197839, 3396.995770573112, 3408.2610497785868, -102049.79503748358, -43231.42537253206, 0.0, 0.0, 0.0, 193.0, 1.0, 1.0, 1.0, 1.0, 0.0, 1.0, 257.0, 257.0, 1.0, 1.7653998260608282E9, 0.0, 2025-12-10 16:50:26.060
99.0, -4185.386501000703, -4197.836422662309, -4236.1920161476155, -4247.390240119725, 3395.9228868392574, 3407.098759066911, -102048.11865664944, -43229.637232975634, 0.0, 0.0, 0.0, 193.0, 1.0, 1.0, 1.0, 1.0, 0.0, 1.0, 257.0, 257.0, 1.0, 1.765399826065802E9, 0.0, 2025-12-10 16:50:26.065
100.0, -4185.0065213449625, -4197.344684284292, -4235.700277769599, -4246.809094763887, 3395.095872294411, 3406.249392777609, -102046.86695895994, -43228.385535286136, 0.0, 0.0, 0.0, 193.0, 1.0, 1.0, 1.0, 1.0, 0.0, 1.0, 257.0, 257.0, 1.0, 1.7653998260698073E9, 0.0, 2025-12-10 16:50:26.069
101.0, -4186.1241085677275, -4198.797547673887, -4237.242548137016, -4248.418420364669, 3396.749901384104, 3408.0151805895784, -102048.5433397941, -43230.37484054266, 0.0, 0.0, 0.0, 193.0, 1.0, 1.0, 1.0, 1.0, 0.0, 1.0, 257.0, 257.0, 1.0, 1.7653998260728245E9, 0.0, 2025-12-10 16:50:26.072
102.0, -4187.331102768315, -4199.982190130018, -4238.583652804334, -4249.781876776442, 3398.359226984886, 3409.6468579348157, -102049.92914795032, -43231.98416614344, 0.0, 0.0, 0.0, 193.0, 1.0, 1.0, 1.0, 1.0, 0.0, 1.0, 257.0, 257.0, 1.0, 1.765399826076857E9, 0.0, 2025-12-10 16:50:26.076
103.0, -4188.135765568705, -4200.719797697044, -4239.097742926806, -4250.251263410004, 3398.67215140726, 3409.9597823571903, -102049.59387178348, -43231.58183474324, 0.0, 0.0, 0.0, 193.0, 1.0, 1.0, 1.0, 1.0, 0.0, 1.0, 257.0, 257.0, 1.0, 1.7653998260808697E9, 0.0, 2025-12-10 16:50:26.080
104.0, -4188.024006846429, -4200.451576763579, -4238.6507080377, -4249.826580265353, 3397.867488606869, 3409.3115817679864, -102048.27511886062, -43230.37484054266, 0.0, 0.0, 0.0, 193.0, 1.0, 1.0, 1.0, 1.0, 0.0, 1.0, 257.0, 257.0, 1.0, 1.7653998260848656E9, 0.0, 2025-12-10 16:50:26.084
105.0, -4188.2922277798925, -4200.943315141597, -4239.164798160172, -4250.430077365646, 3398.67215140726, 3410.160948057288, -102048.87861596092, -43231.20185508751, 0.0, 0.0, 0.0, 193.0, 1.0, 1.0, 1.0, 1.0, 0.0, 1.0, 257.0, 257.0, 1.0, 1.7653998260888464E9, 0.0, 2025-12-10 16:50:26.088
106.0, -4188.1134138242505, -4200.809204674864, -4239.120094671261, -4250.564187832379, 3399.1415380408216, 3410.540927713028, -102049.10213340547, -43231.64888997661, 0.0, 0.0, 0.0, 193.0, 1.0, 1.0, 1.0, 1.0, 0.0, 1.0, 257.0, 257.0, 1.0, 1.7653998260938447E9, 0.0, 2025-12-10 16:50:26.093
107.0, -4189.253352791471, -4201.859736664264, -4240.304737127392, -4251.726478544054, 3400.1026630523997, 3411.457349235696, -102049.3927060834, -43231.98416614344, 0.0, 0.0, 0.0, 193.0, 1.0, 1.0, 1.0, 1.0, 0.0, 1.0, 257.0, 257.0, 1.0, 1.7653998260978866E9, 0.0, 2025-12-10 16:50:26.097
108.0, -4189.298056280381, -4201.703274453077, -4240.215330149571, -4251.45825761059, 3399.4991659521065, 3410.742093413126, -102048.31982234953, -43230.821875431764, 0.0, 0.0, 0.0, 193.0, 1.0, 1.0, 1.0, 1.0, 0.0, 1.0, 257.0, 257.0, 1.0, 1.765399826100882E9, 0.0, 2025-12-10 16:50:26.100
109.0, -4191.265009792449, -4203.692579709599, -4242.338745872825, -4253.55932158939, 3401.5108229530842, 3412.9102126252906, -102050.37618283942, -43233.07940162175, 0.0, 0.0, 0.0, 193.0, 1.0, 1.0, 1.0, 1.0, 0.0, 1.0, 257.0, 257.0, 1.0, 1.7653998261048875E9, 0.0, 2025-12-10 16:50:26.104
110.0, -4191.7567481704655, -4204.3184285543475, -4243.1210569287605, -4254.431039623147, 3402.6954654092156, 3414.0725033369667, -102051.35965959546, -43234.48756152244, 0.0, 0.0, 0.0, 193.0, 1.0, 1.0, 1.0, 1.0, 0.0, 1.0, 257.0, 257.0, 1.0, 1.7653998261089015E9, 0.0, 2025-12-10 16:50:26.108
111.0, -4190.9967888589845, -4203.603172731778, -4242.271690639459, -4253.581673333844, 3401.8237473754584, 3413.1337300698438, -102049.8397409725, -43233.10175336621, 0.0, 0.0, 0.0, 193.0, 1.0, 1.0, 1.0, 1.0, 0.0, 1.0, 257.0, 257.0, 1.0, 1.765399826112875E9, 0.0, 2025-12-10 16:50:26.112
112.0, -4190.862678392253, -4203.40200703168, -4241.847007494808, -4253.134638444739, 3400.929677597246, 3412.2396602916315, -102048.47628456072, -43231.6041864877, 0.0, 0.0, 0.0, 193.0, 1.0, 1.0, 1.0, 1.0, 0.0, 1.0, 257.0, 257.0, 1.0, 1.7653998261169336E9, 0.0, 2025-12-10 16:50:26.116
113.0, -4191.533230725912, -4204.11726285425, -4242.606966806289, -4253.961652989585, 3401.734340397637, 3413.089026580933, -102048.85626421646, -43232.162980099085, 0.0, 0.0, 0.0, 193.0, 1.0, 1.0, 1.0, 1.0, 0.0, 1.0, 257.0, 257.0, 1.0, 1.7653998261222084E9, 0.0, 2025-12-10 16:50:26.122
114.0, -4191.1085475812615, -4203.893745409697, -4242.517559828468, -4253.872246011763, 3402.1813752867433, 3413.379599258852, -102049.01272642765, -43232.63236673264, 0.0, 0.0, 0.0, 193.0, 1.0, 1.0, 1.0, 1.0, 0.0, 1.0, 257.0, 257.0, 1.0, 1.7653998261259234E9, 0.0, 2025-12-10 16:50:26.125
115.0, -4190.080367336317, -4202.843213420298, -4241.377620861247, -4252.665251811177, 3401.1531950417993, 3412.284363780542, -102047.58221478251, -43231.22420683196, 0.0, 0.0, 0.0, 193.0, 1.0, 1.0, 1.0, 1.0, 0.0, 1.0, 257.0, 257.0, 1.0, 1.765399826128919E9, 0.0, 2025-12-10 16:50:26.128
116.0, -4189.275704535926, -4201.9714953865405, -4240.438847594124, -4251.547664588412, 3399.6332764188382, 3410.7867969020367, -102045.41409557035, -43229.10079110871, 0.0, 0.0, 0.0, 193.0, 1.0, 1.0, 1.0, 1.0, 0.0, 1.0, 257.0, 257.0, 1.0, 1.7653998261329317E9, 0.0, 2025-12-10 16:50:26.132
117.0, -4189.074538835828, -4201.725626197533, -4240.148274916205, -4251.3912023772245, 3399.096834551911, 3410.317410268475, -102044.74354323669, -43228.54199749732, 0.0, 0.0, 0.0, 193.0, 1.0, 1.0, 1.0, 1.0, 0.0, 1.0, 257.0, 257.0, 1.0, 1.7653998261369653E9, 0.0, 2025-12-10 16:50:26.136
118.0, -4188.783966157909, -4201.502108752979, -4240.148274916205, -4251.480609355046, 3399.4321107187407, 3410.6303346908494, -102044.96706068124, -43229.145494597615, 0.0, 0.0, 0.0, 193.0, 1.0, 1.0, 1.0, 1.0, 0.0, 1.0, 257.0, 257.0, 1.0, 1.7653998261409347E9, 0.0, 2025-12-10 16:50:26.140
119.0, -4187.956951613063, -4200.585687230312, -4239.254205137992, -4250.653594810199, 3398.716854896171, 3410.0044858461006, -102043.87182520292, -43228.11731435267, 0.0, 0.0, 0.0, 193.0, 1.0, 1.0, 1.0, 1.0, 0.0, 1.0, 257.0, 257.0, 1.0, 1.7653998261449287E9, 0.0, 2025-12-10 16:50:26.144
120.0, -4187.487564979501, -4199.937486641108, -4238.404838848691, -4249.6924697986215, 3397.5322124400395, 3408.8198433899697, -102041.99427866869, -43226.17271258506, 0.0, 0.0, 0.0, 193.0, 1.0, 1.0, 1.0, 1.0, 0.0, 1.0, 257.0, 257.0, 1.0, 1.7653998261489327E9, 0.0, 2025-12-10 16:50:26.148
121.0, -4189.029835346918, -4201.412701775158, -4239.812998749376, -4251.1006296993055, 3398.8509653629026, 3410.116244568377, -102042.95540368026, -43227.22324457446, 0.0, 0.0, 0.0, 193.0, 1.0, 1.0, 1.0, 1.0, 0.0, 1.0, 257.0, 257.0, 1.0, 1.7653998261539795E9, 0.0, 2025-12-10 16:50:26.153
122.0, -4189.92390512513, -4202.530288997923, -4240.997641205507, -4252.441734366624, 3400.4379392192295, 3411.6361631913383, -102044.3412118365, -43228.96668064198, 0.0, 0.0, 0.0, 193.0, 1.0, 1.0, 1.0, 1.0, 0.0, 1.0, 257.0, 257.0, 1.0, 1.7653998261570628E9, 0.0, 2025-12-10 16:50:26.157
123.0, -4189.029835346918, -4201.703274453077, -4240.282385382937, -4251.614719821778, 3399.901497352302, 3411.099721324411, -102043.42479031382, -43228.18436958604, 0.0, 0.0, 0.0, 193.0, 1.0, 1.0, 1.0, 1.0, 0.0, 1.0, 257.0, 257.0, 1.0, 1.7653998261610177E9, 0.0, 2025-12-10 16:50:26.161
124.0, -4188.269876035438, -4200.83155641932, -4239.365963860269, -4250.564187832379, 3398.4933374516177, 3409.736264912637, -102041.41313331285, -43226.23976781843, 0.0, 0.0, 0.0, 193.0, 1.0, 1.0, 1.0, 1.0, 0.0, 1.0, 257.0, 257.0, 1.0, 1.7653998261650667E9, 0.0, 2025-12-10 16:50:26.165
125.0, -4187.465213235047, -4199.937486641108, -4238.382487104236, -4249.6030628208, 3397.152232784299, 3408.350456756408, -102039.7367524787, -43224.56338698428, 0.0, 0.0, 0.0, 193.0, 1.0, 1.0, 1.0, 1.0, 0.0, 1.0, 257.0, 257.0, 1.0, 1.765399826169057E9, 0.0, 2025-12-10 16:50:26.169
126.0, -4188.359283013258, -4201.0327221194175, -4239.634184793733, -4250.832408765842, 3398.67215140726, 3409.803320146003, -102041.07785714601, -43226.17271258506, 0.0, 0.0, 0.0, 193.0, 1.0, 1.0, 1.0, 1.0, 0.0, 1.0, 257.0, 257.0, 1.0, 1.7653998261730542E9, 0.0, 2025-12-10 16:50:26.173
127.0, -4190.370940014236, -4203.223193076038, -4242.070524939361, -4253.246397167015, 3401.4437677197184, 3412.6196399473715, -102043.44714205827, -43228.92197715306, 0.0, 0.0, 0.0, 193.0, 1.0, 1.0, 1.0, 1.0, 0.0, 1.0, 257.0, 257.0, 1.0, 1.7653998261770463E9, 0.0, 2025-12-10 16:50:26.177
128.0, -4189.5886289583, -4202.373826786737, -4241.087048183328, -4252.2182169220705, 3400.192070030221, 3411.39029400233, -102041.45783680175, -43226.955023641, 0.0, 0.0, 0.0, 193.0, 1.0, 1.0, 1.0, 1.0, 0.0, 1.0, 257.0, 257.0, 1.0, 1.7653998261820598E9, 0.0, 2025-12-10 16:50:26.182
129.0, -4189.141594069194, -4201.747977941987, -4240.349440616303, -4251.435905866135, 3399.096834551911, 3410.3621137573855, -102039.82615945651, -43225.300994551304, 0.0, 0.0, 0.0, 193.0, 1.0, 1.0, 1.0, 1.0, 0.0, 1.0, 257.0, 257.0, 1.0, 1.7653998261850286E9, 0.0, 2025-12-10 16:50:26.185
130.0, -4188.918076624641, -4201.613867475256, -4240.304737127392, -4251.435905866135, 3399.2085932741875, 3410.473872479662, -102039.7814559676, -43225.524511995856, 0.0, 0.0, 0.0, 193.0, 1.0, 1.0, 1.0, 1.0, 0.0, 1.0, 257.0, 257.0, 1.0, 1.765399826189034E9, 0.0, 2025-12-10 16:50:26.189
131.0, -4187.196992301582, -4200.0939488522945, -4238.784818504431, -4249.960690732085, 3398.2027647736986, 3409.468043979173, -102038.55211002256, -43224.56338698428, 0.0, 0.0, 0.0, 193.0, 1.0, 1.0, 1.0, 1.0, 0.0, 1.0, 257.0, 257.0, 1.0, 1.7653998261930196E9, 0.0, 2025-12-10 16:50:26.193
132.0, -4187.621675446234, -4200.429225019125, -4239.097742926806, -4250.206559921094, 3398.3368752404303, 3409.6245061903605, -102038.19448211128, -43224.183407328535, 0.0, 0.0, 0.0, 193.0, 1.0, 1.0, 1.0, 1.0, 0.0, 1.0, 257.0, 257.0, 1.0, 1.7653998261970327E9, 0.0, 2025-12-10 16:50:26.197
133.0, -4189.633332447211, -4202.30677155337, -4241.0646964388725, -4252.017051221973, 3399.610924674383, 3411.0103143465894, -102039.11090363395, -43224.965718384476, 0.0, 0.0, 0.0, 193.0, 1.0, 1.0, 1.0, 1.0, 0.0, 1.0, 257.0, 257.0, 1.0, 1.7653998262010405E9, 0.0, 2025-12-10 16:50:26.201
134.0, -4190.370940014236, -4203.044379120395, -4242.025821450451, -4252.866417511274, 3400.5720496859612, 3411.8596806358914, -102039.82615945651, -43225.859788162685, 0.0, 0.0, 0.0, 193.0, 1.0, 1.0, 1.0, 1.0, 0.0, 1.0, 257.0, 257.0, 1.0, 1.7653998262060356E9, 0.0, 2025-12-10 16:50:26.206
135.0, -4189.92390512513, -4202.7314546980215, -4241.779952261442, -4252.665251811177, 3400.8849741083354, 3412.083198080444, -102039.75910422315, -43226.217416073974, 0.0, 0.0, 0.0, 193.0, 1.0, 1.0, 1.0, 1.0, 0.0, 1.0, 257.0, 257.0, 1.0, 1.7653998262090504E9, 0.0, 2025-12-10 16:50:26.209
136.0, -4189.365111513747, -4202.0832541088175, -4241.087048183328, -4251.860589010786, 3400.0803113079446, 3411.39029400233, -102038.44035130029, -43224.94336664002, 0.0, 0.0, 0.0, 193.0, 1.0, 1.0, 1.0, 1.0, 0.0, 1.0, 257.0, 257.0, 1.0, 1.7653998262120583E9, 0.0, 2025-12-10 16:50:26.212
137.0, -4187.532268468412, -4200.250411063482, -4238.963632460074, -4249.6924697986215, 3397.711026395682, 3408.9092503677907, -102035.333458821, -43221.76941892737, 0.0, 0.0, 0.0, 193.0, 1.0, 1.0, 1.0, 1.0, 0.0, 1.0, 257.0, 257.0, 1.0, 1.765399826217059E9, 0.0, 2025-12-10 16:50:26.217
138.0, -4185.587666700801, -4198.462271507057, -4236.974327203551, -4247.79257151992, 3395.744072883615, 3406.9422968557237, -102033.12063611993, -43219.713058437475, 0.0, 0.0, 0.0, 193.0, 1.0, 1.0, 1.0, 1.0, 0.0, 1.0, 257.0, 257.0, 1.0, 1.7653998262210913E9, 0.0, 2025-12-10 16:50:26.221
139.0, -4186.392329501192, -4199.490451752002, -4238.114266170772, -4249.0442692094175, 3397.375750228852, 3408.6410294343273, -102034.5287960206, -43221.61295671618, 0.0, 0.0, 0.0, 193.0, 1.0, 1.0, 1.0, 1.0, 0.0, 1.0, 257.0, 257.0, 1.0, 1.7653998262251055E9, 0.0, 2025-12-10 16:50:26.225
140.0, -4189.5886289583, -4202.619695975744, -4241.399972605703, -4252.3299756443475, 3400.706160152693, 3412.0161428470783, -102037.4792262887, -43224.608090473186, 0.0, 0.0, 0.0, 193.0, 1.0, 1.0, 1.0, 1.0, 0.0, 1.0, 257.0, 257.0, 1.0, 1.7653998262290964E9, 0.0, 2025-12-10 16:50:26.229
141.0, -4190.080367336317, -4202.932620398119, -4241.668193539166, -4252.397030877713, 3400.348532241408, 3411.613811446883, -102036.60750825495, -43223.6022619727, 0.0, 0.0, 0.0, 193.0, 1.0, 1.0, 1.0, 1.0, 0.0, 1.0, 257.0, 257.0, 1.0, 1.7653998262330847E9, 0.0, 2025-12-10 16:50:26.233
142.0, -4189.521573724935, -4202.440882020102, -4241.243510394515, -4251.972347733063, 3399.677979907749, 3410.9209073687684, -102035.60167975446, -43222.77524742785, 0.0, 0.0, 0.0, 193.0, 1.0, 1.0, 1.0, 1.0, 0.0, 1.0, 257.0, 257.0, 1.0, 1.7653998262371187E9, 0.0, 2025-12-10 16:50:26.237
143.0, -4189.20864930256, -4202.172661086638, -4241.154103416694, -4252.0394029664285, 3399.9238490967573, 3411.2785352800533, -102035.80284545456, -43223.334041039234, 0.0, 0.0, 0.0, 193.0, 1.0, 1.0, 1.0, 1.0, 0.0, 1.0, 257.0, 257.0, 1.0, 1.765399826240121E9, 0.0, 2025-12-10 16:50:26.240
144.0, -4188.7616144134545, -4201.770329686443, -4240.729420272043, -4251.704126799599, 3399.8567938633914, 3411.189128302232, -102035.26640358764, -43222.998764872405, 0.0, 0.0, 0.0, 193.0, 1.0, 1.0, 1.0, 1.0, 0.0, 1.0, 257.0, 257.0, 1.0, 1.7653998262451015E9, 0.0, 2025-12-10 16:50:26.245
145.0, -4188.247524290982, -4201.21153607506, -4239.991812705018, -4250.787705276931, 3398.8733171073577, 3410.116244568377, -102033.41120879784, -43221.14357008262, 0.0, 0.0, 0.0, 193.0, 1.0, 1.0, 1.0, 1.0, 0.0, 1.0, 257.0, 257.0, 1.0, 1.7653998262491212E9, 0.0, 2025-12-10 16:50:26.249
146.0, -4189.275704535926, -4202.195012831094, -4240.8858824832305, -4251.704126799599, 3399.5438694410173, 3410.764445157581, -102033.70178147576, -43221.47884624945, 0.0, 0.0, 0.0, 193.0, 1.0, 1.0, 1.0, 1.0, 0.0, 1.0, 257.0, 257.0, 1.0, 1.765399826253172E9, 0.0, 2025-12-10 16:50:26.253
147.0, -4189.2310010470155, -4202.217364575549, -4241.019992949962, -4251.994699477518, 3400.1026630523997, 3411.3008870245085, -102034.1264646204, -43222.149398583104, 0.0, 0.0, 0.0, 193.0, 1.0, 1.0, 1.0, 1.0, 0.0, 1.0, 257.0, 257.0, 1.0, 1.7653998262571487E9, 0.0, 2025-12-10 16:50:26.257
148.0, -4188.091062079795, -4201.010370374963, -4239.768295260465, -4250.899463999208, 3399.1862415297323, 3410.473872479662, -102032.87476693092, -43221.16592182707, 0.0, 0.0, 0.0, 193.0, 1.0, 1.0, 1.0, 1.0, 0.0, 1.0, 257.0, 257.0, 1.0, 1.7653998262611656E9, 0.0, 2025-12-10 16:50:26.261
149.0, -4186.481736479012, -4199.244582562993, -4237.711934770577, -4248.776048275954, 3396.749901384104, 3408.0151805895784, -102029.81257794054, -43218.12608458115, 0.0, 0.0, 0.0, 193.0, 1.0, 1.0, 1.0, 1.0, 0.0, 1.0, 257.0, 257.0, 1.0, 1.7653998262641418E9, 0.0, 2025-12-10 16:50:26.264
150.0, -4186.839364390297, -4199.490451752002, -4237.98015570404, -4248.88780699823, 3396.5263839395507, 3407.836366633936, -102029.16437735134, -43217.45553224749, 0.0, 0.0, 0.0, 193.0, 1.0, 1.0, 1.0, 1.0, 0.0, 1.0, 257.0, 257.0, 1.0, 1.7653998262681615E9, 0.0, 2025-12-10 16:50:26.268
151.0, -4188.471041735535, -4201.412701775158, -4240.058867938384, -4251.03357446594, 3398.7839101295367, 3410.160948057288, -102031.39955179687, -43219.98127937094, 0.0, 0.0, 0.0, 193.0, 1.0, 1.0, 1.0, 1.0, 0.0, 1.0, 257.0, 257.0, 1.0, 1.7653998262721715E9, 0.0, 2025-12-10 16:50:26.272
152.0, -4188.40398650217, -4201.502108752979, -4240.260033638481, -4251.234740166037, 3399.38740722983, 3410.764445157581, -102031.62306924142, -43220.60712821569, 0.0, 0.0, 0.0, 193.0, 1.0, 1.0, 1.0, 1.0, 0.0, 1.0, 257.0, 257.0, 1.0, 1.7653998262771652E9, 0.0, 2025-12-10 16:50:26.277
153.0, -4189.320408024837, -4202.284419808915, -4240.8858824832305, -4251.905292499697, 3400.0132560745787, 3411.3679422578743, -102031.42190354133, -43220.38361077113, 0.0, 0.0, 0.0, 193.0, 1.0, 1.0, 1.0, 1.0, 0.0, 1.0, 257.0, 257.0, 1.0, 1.765399826281182E9, 0.0, 2025-12-10 16:50:26.281
154.0, -4189.298056280381, -4202.038550619906, -4240.684716783133, -4251.525312843956, 3399.365055485375, 3410.5856312019387, -102030.2819645741, -43219.17661657055, 0.0, 0.0, 0.0, 193.0, 1.0, 1.0, 1.0, 1.0, 0.0, 1.0, 257.0, 257.0, 1.0, 1.7653998262851975E9, 0.0, 2025-12-10 16:50:26.285
155.0, -4189.186297558105, -4201.92679189763, -4240.707068527588, -4251.704126799599, 3399.610924674383, 3410.809148646492, -102030.2819645741, -43219.37778227065, 0.0, 0.0, 0.0, 193.0, 1.0, 1.0, 1.0, 1.0, 0.0, 1.0, 257.0, 257.0, 1.0, 1.765399826289196E9, 0.0, 2025-12-10 16:50:26.289
156.0, -4189.633332447211, -4202.507937253468, -4241.399972605703, -4252.464086111079, 3400.706160152693, 3412.0161428470783, -102031.26544133014, -43220.58477647123, 0.0, 0.0, 0.0, 193.0, 1.0, 1.0, 1.0, 1.0, 0.0, 1.0, 257.0, 257.0, 1.0, 1.7653998262931955E9, 0.0, 2025-12-10 16:50:26.293
157.0, -4188.694559180089, -4201.54681224189, -4240.282385382937, -4251.234740166037, 3399.2756485075533, 3410.6303346908494, -102029.41024654034, -43218.729581681444, 0.0, 0.0, 0.0, 193.0, 1.0, 1.0, 1.0, 1.0, 0.0, 1.0, 257.0, 257.0, 1.0, 1.765399826296188E9, 0.0, 2025-12-10 16:50:26.296
158.0, -4189.499221980479, -4202.284419808915, -4240.930585972141, -4251.681775055144, 3399.4321107187407, 3410.7197416686704, -102028.96321165124, -43218.17078807006, 0.0, 0.0, 0.0, 193.0, 1.0, 1.0, 1.0, 1.0, 0.0, 1.0, 257.0, 257.0, 1.0, 1.765399826300204E9, 0.0, 2025-12-10 16:50:26.300
159.0, -4189.968608614041, -4202.865565164753, -4241.735248772532, -4252.464086111079, 3400.125014796855, 3411.457349235696, -102029.58906049599, -43219.04250610382, 0.0, 0.0, 0.0, 193.0, 1.0, 1.0, 1.0, 1.0, 0.0, 1.0, 257.0, 257.0, 1.0, 1.765399826305194E9, 0.0, 2025-12-10 16:50:26.305
160.0, -4188.471041735535, -4201.479757008524, -4240.438847594124, -4251.122981443761, 3399.38740722983, 3410.6973899242153, -102028.51617676213, -43218.37195377016, 0.0, 0.0, 0.0, 193.0, 1.0, 1.0, 1.0, 1.0, 0.0, 1.0, 257.0, 257.0, 1.0, 1.765399826309255E9, 0.0, 2025-12-10 16:50:26.309
161.0, -4188.180469057616, -4201.166832586149, -4240.058867938384, -4250.743001788021, 3399.253296763098, 3410.4962242241177, -102027.71151396174, -43217.58964271422, 0.0, 0.0, 0.0, 193.0, 1.0, 1.0, 1.0, 1.0, 0.0, 1.0, 257.0, 257.0, 1.0, 1.7653998263132412E9, 0.0, 2025-12-10 16:50:26.313
162.0, -4188.739262668999, -4201.457405264068, -4240.304737127392, -4250.988870977029, 3398.9850758296343, 3410.2727067795645, -102026.81744418353, -43216.60616595819, 0.0, 0.0, 0.0, 193.0, 1.0, 1.0, 1.0, 1.0, 0.0, 1.0, 257.0, 257.0, 1.0, 1.765399826317232E9, 0.0, 2025-12-10 16:50:26.317
163.0, -4189.096890580284, -4201.837384919809, -4240.662365038677, -4251.45825761059, 3399.365055485375, 3410.6526864353045, -102026.86214767244, -43216.852035147196, 0.0, 0.0, 0.0, 193.0, 1.0, 1.0, 1.0, 1.0, 0.0, 1.0, 257.0, 257.0, 1.0, 1.765399826321231E9, 0.0, 2025-12-10 16:50:26.321
164.0, -4189.298056280381, -4202.30677155337, -4241.243510394515, -4252.151161688705, 3400.415587474774, 3411.6361631913383, -102027.73386570619, -43218.1484363256, 0.0, 0.0, 0.0, 193.0, 1.0, 1.0, 1.0, 1.0, 0.0, 1.0, 257.0, 257.0, 1.0, 1.7653998263242328E9, 0.0, 2025-12-10 16:50:26.324
165.0, -4188.1134138242505, -4201.1444808416945, -4240.036516193929, -4250.877112254752, 3399.1415380408216, 3410.406817246296, -102026.19159533878, -43216.762628169374, 0.0, 0.0, 0.0, 193.0, 1.0, 1.0, 1.0, 1.0, 0.0, 1.0, 257.0, 257.0, 1.0, 1.7653998263282218E9, 0.0, 2025-12-10 16:50:26.328
166.0, -4186.347626012281, -4199.244582562993, -4237.93545221513, -4248.641937809221, 3396.548735684006, 3407.858718378391, -102022.90588890386, -43213.476921734444, 0.0, 0.0, 0.0, 193.0, 1.0, 1.0, 1.0, 1.0, 0.0, 1.0, 257.0, 257.0, 1.0, 1.7653998263332617E9, 0.0, 2025-12-10 16:50:26.333
167.0, -4186.347626012281, -4199.311637796359, -4237.913100470674, -4248.798400020409, 3396.5263839395507, 3407.7022561672043, -102022.50355750366, -43213.141645567615, 0.0, 0.0, 0.0, 193.0, 1.0, 1.0, 1.0, 1.0, 0.0, 1.0, 257.0, 257.0, 1.0, 1.7653998263372488E9, 0.0, 2025-12-10 16:50:26.337
168.0, -4186.682902179111, -4199.669265707644, -4238.494245826512, -4249.513655842979, 3397.5545641844947, 3408.8198433899697, -102023.35292379296, -43214.348639768206, 0.0, 0.0, 0.0, 193.0, 1.0, 1.0, 1.0, 1.0, 0.0, 1.0, 257.0, 257.0, 1.0, 1.7653998263412497E9, 0.0, 2025-12-10 16:50:26.341
169.0, -4186.749957412477, -4199.825727918831, -4238.69541152661, -4249.6030628208, 3398.068654306967, 3409.3115817679864, -102023.41997902632, -43214.5498054683, 0.0, 0.0, 0.0, 193.0, 1.0, 1.0, 1.0, 1.0, 0.0, 1.0, 257.0, 257.0, 1.0, 1.7653998263452609E9, 0.0, 2025-12-10 16:50:26.345
170.0, -4186.727605668021, -4199.602210474278, -4238.248376637504, -4249.111324442783, 3397.2639915065756, 3408.551622456506, -102022.05652261456, -43213.007535100885, 0.0, 0.0, 0.0, 193.0, 1.0, 1.0, 1.0, 1.0, 0.0, 1.0, 257.0, 257.0, 1.0, 1.7653998263483253E9, 0.0, 2025-12-10 16:50:26.348
171.0, -4190.214477803049, -4202.932620398119, -4241.645841794711, -4252.5087895999895, 3400.4602909636847, 3411.7926254025256, -102024.80578718254, -43215.82385490225, 0.0, 0.0, 0.0, 193.0, 1.0, 1.0, 1.0, 1.0, 0.0, 1.0, 257.0, 257.0, 1.0, 1.7653998263522887E9, 0.0, 2025-12-10 16:50:26.352
172.0, -4192.0473208483845, -4204.7878151879095, -4243.612795306778, -4254.632205323244, 3402.9189828537683, 3414.1842620592433, -102026.99625813917, -43218.43900900352, 0.0, 0.0, 0.0, 193.0, 1.0, 1.0, 1.0, 1.0, 0.0, 1.0, 257.0, 257.0, 1.0, 1.7653998263563323E9, 0.0, 2025-12-10 16:50:26.356
173.0, -4192.024969103929, -4204.765463443454, -4243.724554029054, -4254.721612301065, 3403.1425002983215, 3414.5195382260727, -102027.08566511699, -43218.79663691481, 0.0, 0.0, 0.0, 193.0, 1.0, 1.0, 1.0, 1.0, 0.0, 1.0, 257.0, 257.0, 1.0, 1.7653998263603375E9, 0.0, 2025-12-10 16:50:26.360
174.0, -4191.265009792449, -4203.871393665242, -4242.808132506387, -4253.6040250783, 3401.7566921420926, 3413.089026580933, -102025.11871160493, -43216.717924680466, 0.0, 0.0, 0.0, 193.0, 1.0, 1.0, 1.0, 1.0, 0.0, 1.0, 257.0, 257.0, 1.0, 1.7653998263653076E9, 0.0, 2025-12-10 16:50:26.365
175.0, -4189.633332447211, -4202.172661086638, -4240.997641205507, -4251.659423310688, 3399.454462463196, 3410.809148646492, -102022.45885401474, -43214.08041883474, 0.0, 0.0, 0.0, 193.0, 1.0, 1.0, 1.0, 1.0, 0.0, 1.0, 257.0, 257.0, 1.0, 1.765399826369332E9, 0.0, 2025-12-10 16:50:26.369
176.0, -4189.901553380675, -4202.709102953566, -4241.668193539166, -4252.397030877713, 3400.348532241408, 3411.77027365807, -102023.17410983732, -43215.06389559077, 0.0, 0.0, 0.0, 193.0, 1.0, 1.0, 1.0, 1.0, 0.0, 1.0, 257.0, 257.0, 1.0, 1.7653998263733168E9, 0.0, 2025-12-10 16:50:26.373
177.0, -4192.337893526304, -4205.301905310382, -4244.484513340534, -4255.347461145814, 3403.678942165249, 3415.123035326366, -102026.12454010542, -43218.32725028125, 0.0, 0.0, 0.0, 193.0, 1.0, 1.0, 1.0, 1.0, 0.0, 1.0, 257.0, 257.0, 1.0, 1.7653998263763287E9, 0.0, 2025-12-10 16:50:26.376
178.0, -4192.516707481946, -4205.16779484365, -4244.305699384892, -4255.101591956805, 3403.343665998419, 3414.765407415081, -102025.05165637156, -43217.343773525216, 0.0, 0.0, 0.0, 193.0, 1.0, 1.0, 1.0, 1.0, 0.0, 1.0, 257.0, 257.0, 1.0, 1.7653998263803294E9, 0.0, 2025-12-10 16:50:26.380
179.0, -4191.153251070172, -4203.647876220689, -4242.629318550744, -4253.291100655925, 3401.1978985307096, 3412.5078812250954, -102022.43650227028, -43214.661564190574, 0.0, 0.0, 0.0, 193.0, 1.0, 1.0, 1.0, 1.0, 0.0, 1.0, 257.0, 257.0, 1.0, 1.7653998263844657E9, 0.0, 2025-12-10 16:50:26.384
180.0, -4191.01914060344, -4203.647876220689, -4242.651670295199, -4253.291100655925, 3401.332008997442, 3412.6643434362823, -102022.50355750366, -43214.79567465731, 0.0, 0.0, 0.0, 193.0, 1.0, 1.0, 1.0, 1.0, 0.0, 1.0, 257.0, 257.0, 1.0, 1.765399826388337E9, 0.0, 2025-12-10 16:50:26.388
181.0, -4189.566277213845, -4202.418530275647, -4241.489379583523, -4252.106458199794, 3400.48264270814, 3411.8596806358914, -102021.54243249208, -43214.21452930147, 0.0, 0.0, 0.0, 193.0, 1.0, 1.0, 1.0, 1.0, 0.0, 1.0, 257.0, 257.0, 1.0, 1.7653998263933427E9, 0.0, 2025-12-10 16:50:26.393
182.0, -4189.990960358496, -4202.776158186932, -4241.914062728174, -4252.531141344445, 3400.773215386059, 3412.083198080444, -102021.25185981416, -43213.923956623556, 0.0, 0.0, 0.0, 193.0, 1.0, 1.0, 1.0, 1.0, 0.0, 1.0, 257.0, 257.0, 1.0, 1.7653998263973596E9, 0.0, 2025-12-10 16:50:26.397
183.0, -4190.750919669977, -4203.424358776136, -4242.539911572923, -4253.089934955828, 3400.8626223638803, 3412.127901569355, -102020.76012143613, -43213.275756034345, 0.0, 0.0, 0.0, 193.0, 1.0, 1.0, 1.0, 1.0, 0.0, 1.0, 257.0, 257.0, 1.0, 1.7653998264003496E9, 0.0, 2025-12-10 16:50:26.400
184.0, -4190.728567925521, -4203.446710520591, -4242.495208084012, -4253.067583211373, 3400.907325852791, 3412.2173085471763, -102020.64836271387, -43213.32045952326, 0.0, 0.0, 0.0, 193.0, 1.0, 1.0, 1.0, 1.0, 0.0, 1.0, 257.0, 257.0, 1.0, 1.7653998264043775E9, 0.0, 2025-12-10 16:50:26.404
185.0, -4190.8179749033425, -4203.759634942965, -4242.830484250842, -4253.4475628671125, 3401.9131543532794, 3413.2678405365755, -102021.34126679198, -43214.46039849048, 0.0, 0.0, 0.0, 193.0, 1.0, 1.0, 1.0, 1.0, 0.0, 1.0, 257.0, 257.0, 1.0, 1.7653998264083714E9, 0.0, 2025-12-10 16:50:26.408
186.0, -4188.426338246624, -4201.189184330605, -4240.327088871848, -4250.832408765842, 3399.342703740919, 3410.6303346908494, -102018.10026384596, -43211.42056124456, 0.0, 0.0, 0.0, 193.0, 1.0, 1.0, 1.0, 1.0, 0.0, 1.0, 257.0, 257.0, 1.0, 1.7653998264123793E9, 0.0, 2025-12-10 16:50:26.412
187.0, -4188.269876035438, -4200.809204674864, -4239.74594351601, -4250.295966898914, 3398.403930473796, 3409.6468579348157, -102016.53564173408, -43209.76653215486, 0.0, 0.0, 0.0, 193.0, 1.0, 1.0, 1.0, 1.0, 0.0, 1.0, 257.0, 257.0, 1.0, 1.765399826416376E9, 0.0, 2025-12-10 16:50:26.416
188.0, -4188.716910924543, -4201.278591308426, -4240.103571427295, -4250.720650043565, 3398.739206640626, 3410.071541079467, -102016.62504871191, -43209.96769785496, 0.0, 0.0, 0.0, 193.0, 1.0, 1.0, 1.0, 1.0, 0.0, 1.0, 257.0, 257.0, 1.0, 1.7653998264214368E9, 0.0, 2025-12-10 16:50:26.421
189.0, -4188.962780113552, -4201.658570964167, -4240.707068527588, -4251.346498888314, 3399.610924674383, 3410.9209073687684, -102017.47441500121, -43211.15234031109, 0.0, 0.0, 0.0, 193.0, 1.0, 1.0, 1.0, 1.0, 0.0, 1.0, 257.0, 257.0, 1.0, 1.7653998264254236E9, 0.0, 2025-12-10 16:50:26.425
190.0, -4188.694559180089, -4201.367998286248, -4240.50590282749, -4251.122981443761, 3399.4991659521065, 3410.742093413126, -102016.96032487873, -43210.7500089109, 0.0, 0.0, 0.0, 193.0, 1.0, 1.0, 1.0, 1.0, 0.0, 1.0, 257.0, 257.0, 1.0, 1.7653998264284008E9, 0.0, 2025-12-10 16:50:26.428
191.0, -4188.7616144134545, -4201.502108752979, -4240.371792360758, -4250.944167488118, 3398.9850758296343, 3410.2280032906538, -102015.75333067816, -43209.52066296586, 0.0, 0.0, 0.0, 193.0, 1.0, 1.0, 1.0, 1.0, 0.0, 1.0, 257.0, 257.0, 1.0, 1.765399826432442E9, 0.0, 2025-12-10 16:50:26.432
192.0, -4189.476870236024, -4202.172661086638, -4241.042344694418, -4251.637071566233, 3399.4768142076514, 3410.831500390947, -102015.88744114488, -43209.81123564378, 0.0, 0.0, 0.0, 193.0, 1.0, 1.0, 1.0, 1.0, 0.0, 1.0, 257.0, 257.0, 1.0, 1.7653998264364228E9, 0.0, 2025-12-10 16:50:26.436
193.0, -4189.5886289583, -4202.530288997923, -4241.422324350157, -4252.17351343316, 3400.549697941506, 3411.8596806358914, -102016.51328998963, -43210.88411937763, 0.0, 0.0, 0.0, 193.0, 1.0, 1.0, 1.0, 1.0, 0.0, 1.0, 257.0, 257.0, 1.0, 1.7653998264404428E9, 0.0, 2025-12-10 16:50:26.440
194.0, -4189.0521870913735, -4202.038550619906, -4240.952937716596, -4251.79353377742, 3400.4379392192295, 3411.5914597024275, -102016.06625510052, -43210.43708448853, 0.0, 0.0, 0.0, 193.0, 1.0, 1.0, 1.0, 1.0, 0.0, 1.0, 257.0, 257.0, 1.0, 1.7653998264444292E9, 0.0, 2025-12-10 16:50:26.444
195.0, -4188.918076624641, -4201.725626197533, -4240.483551083034, -4251.234740166037, 3399.5662211854724, 3410.67503817976, -102014.52398473311, -43208.805407143285, 0.0, 0.0, 0.0, 193.0, 1.0, 1.0, 1.0, 1.0, 0.0, 1.0, 257.0, 257.0, 1.0, 1.7653998264484928E9, 0.0, 2025-12-10 16:50:26.448
196.0, -4189.119242324739, -4201.703274453077, -4240.394144105214, -4251.234740166037, 3399.1638897852768, 3410.2950585240196, -102013.67461844381, -43208.02309608735, 0.0, 0.0, 0.0, 193.0, 1.0, 1.0, 1.0, 1.0, 0.0, 1.0, 257.0, 257.0, 1.0, 1.765399826453477E9, 0.0, 2025-12-10 16:50:26.453
197.0, -4189.342759769293, -4201.904440153175, -4240.774123760953, -4251.614719821778, 3399.7897386300256, 3411.0103143465894, -102014.18870856627, -43208.939517610015, 0.0, 0.0, 0.0, 193.0, 1.0, 1.0, 1.0, 1.0, 0.0, 1.0, 257.0, 257.0, 1.0, 1.765399826456486E9, 0.0, 2025-12-10 16:50:26.456
198.0, -4189.096890580284, -4201.725626197533, -4240.640013294222, -4251.502961099501, 3399.990904330123, 3411.3008870245085, -102014.18870856627, -43209.140683310114, 0.0, 0.0, 0.0, 193.0, 1.0, 1.0, 1.0, 1.0, 0.0, 1.0, 257.0, 257.0, 1.0, 1.7653998264604704E9, 0.0, 2025-12-10 16:50:26.460
199.0, -4189.432166747113, -4202.038550619906, -4240.841178994319, -4251.614719821778, 3399.9462008412124, 3411.2114800466875, -102013.54050797707, -43208.42542748755, 0.0, 0.0, 0.0, 193.0, 1.0, 1.0, 1.0, 1.0, 0.0, 1.0, 257.0, 257.0, 1.0, 1.7653998264644904E9, 0.0, 2025-12-10 16:50:26.464
200.0, -4191.555582470368, -4204.184318087616, -4242.986946462029, -4253.671080311666, 3401.622581675361, 3412.9549161142013, -102014.72515043321, -43209.65477343259, 0.0, 0.0, 0.0, 193.0, 1.0, 1.0, 1.0, 1.0, 0.0, 1.0, 257.0, 257.0, 1.0, 1.7653998264684968E9, 0.0, 2025-12-10 16:50:26.468
201.0, -4189.990960358496, -4202.597344231289, -4241.556434816889, -4252.240568666526, 3400.549697941506, 3411.9490876137124, -102013.40639751035, -43208.49248272091, 0.0, 0.0, 0.0, 193.0, 1.0, 1.0, 1.0, 1.0, 0.0, 1.0, 257.0, 257.0, 1.0, 1.7653998264724915E9, 0.0, 2025-12-10 16:50:26.472
202.0, -4190.25918129196, -4202.798509931387, -4241.891710983719, -4252.799362277909, 3401.3990642308077, 3412.8655091363803, -102013.98754286618, -43209.40890424358, 0.0, 0.0, 0.0, 193.0, 1.0, 1.0, 1.0, 1.0, 0.0, 1.0, 257.0, 257.0, 1.0, 1.7653998264765127E9, 0.0, 2025-12-10 16:50:26.476
203.0, -4191.242658047993, -4203.73728319851, -4242.69637378411, -4253.626376822755, 3402.0696165644667, 3413.446654492218, -102013.94283937727, -43209.52066296586, 0.0, 0.0, 0.0, 193.0, 1.0, 1.0, 1.0, 1.0, 0.0, 1.0, 257.0, 257.0, 1.0, 1.7653998264815092E9, 0.0, 2025-12-10 16:50:26.481
204.0, -4191.265009792449, -4203.781986687421, -4242.495208084012, -4253.402859378202, 3401.4437677197184, 3412.8208056474696, -102012.84760389896, -43208.35837225418, 0.0, 0.0, 0.0, 193.0, 1.0, 1.0, 1.0, 1.0, 0.0, 1.0, 257.0, 257.0, 1.0, 1.7653998264845293E9, 0.0, 2025-12-10 16:50:26.484
205.0, -4189.92390512513, -4202.485585509013, -4241.22115865006, -4252.2182169220705, 3400.2367735191315, 3411.5914597024275, -102011.4841474872, -43207.24078503141, 0.0, 0.0, 0.0, 193.0, 1.0, 1.0, 1.0, 1.0, 0.0, 1.0, 257.0, 257.0, 1.0, 1.765399826488539E9, 0.0, 2025-12-10 16:50:26.488
206.0, -4190.840326647798, -4203.446710520591, -4242.517559828468, -4253.4475628671125, 3401.9802095866457, 3413.2678405365755, -102012.95936262124, -43209.0512763323, 0.0, 0.0, 0.0, 193.0, 1.0, 1.0, 1.0, 1.0, 0.0, 1.0, 257.0, 257.0, 1.0, 1.7653998264926786E9, 0.0, 2025-12-10 16:50:26.492
207.0, -4190.683864436611, -4203.424358776136, -4242.383449361736, -4253.201693678105, 3401.734340397637, 3413.089026580933, -102012.22175505421, -43208.179558298536, 0.0, 0.0, 0.0, 193.0, 1.0, 1.0, 1.0, 1.0, 0.0, 1.0, 257.0, 257.0, 1.0, 1.7653998264965432E9, 0.0, 2025-12-10 16:50:26.496
208.0, -4191.823803403831, -4204.564297743356, -4243.389277862225, -4254.140466945228, 3402.360189242386, 3413.6254684478604, -102012.19940330976, -43208.13485480963, 0.0, 0.0, 0.0, 193.0, 1.0, 1.0, 1.0, 1.0, 0.0, 1.0, 257.0, 257.0, 1.0, 1.7653998265005417E9, 0.0, 2025-12-10 16:50:26.500
209.0, -4191.913210381653, -4204.586649487812, -4243.568091817867, -4254.274577411959, 3402.606058431394, 3413.8713376368687, -102012.1323480764, -43208.26896527636, 0.0, 0.0, 0.0, 193.0, 1.0, 1.0, 1.0, 1.0, 0.0, 1.0, 257.0, 257.0, 1.0, 1.7653998265046003E9, 0.0, 2025-12-10 16:50:26.504
210.0, -4191.466175492546, -4204.296076809893, -4243.344574373314, -4254.140466945228, 3402.896631109313, 3414.318372525975, -102012.15469982085, -43208.671296676555, 0.0, 0.0, 0.0, 193.0, 1.0, 1.0, 1.0, 1.0, 0.0, 1.0, 257.0, 257.0, 1.0, 1.7653998265095685E9, 0.0, 2025-12-10 16:50:26.509
211.0, -4191.220306303538, -4204.184318087616, -4243.054001695395, -4254.028708222951, 3402.7848723870366, 3414.094855081422, -102011.37238876491, -43207.97839259844, 0.0, 0.0, 0.0, 193.0, 1.0, 1.0, 1.0, 1.0, 0.0, 1.0, 257.0, 257.0, 1.0, 1.7653998265125797E9, 0.0, 2025-12-10 16:50:26.512
212.0, -4191.9355621261075, -4204.698408210088, -4243.4116296066795, -4254.296929156414, 3402.650761920305, 3413.9160411257794, -102010.70183643125, -43207.129026309136, 0.0, 0.0, 0.0, 193.0, 1.0, 1.0, 1.0, 1.0, 0.0, 1.0, 257.0, 257.0, 1.0, 1.765399826516582E9, 0.0, 2025-12-10 16:50:26.516
213.0, -4192.650817948677, -4205.346608799292, -4244.283347640437, -4255.0345367234395, 3403.1425002983215, 3414.4748347371624, -102010.99240910917, -43207.64311643161, 0.0, 0.0, 0.0, 193.0, 1.0, 1.0, 1.0, 1.0, 0.0, 1.0, 257.0, 257.0, 1.0, 1.7653998265205464E9, 0.0, 2025-12-10 16:50:26.520
214.0, -4192.0473208483845, -4204.810166932365, -4243.903367984697, -4254.833371023342, 3403.2095555316873, 3414.5418899705282, -102010.8806503869, -43207.86663387616, 0.0, 0.0, 0.0, 193.0, 1.0, 1.0, 1.0, 1.0, 0.0, 1.0, 257.0, 257.0, 1.0, 1.7653998265245483E9, 0.0, 2025-12-10 16:50:26.524
215.0, -4191.197954559083, -4203.826690176331, -4242.897539484208, -4253.961652989585, 3402.4719479646624, 3413.7595789145926, -102009.60660095295, -43206.81610188676, 0.0, 0.0, 0.0, 193.0, 1.0, 1.0, 1.0, 1.0, 0.0, 1.0, 257.0, 257.0, 1.0, 1.7653998265285845E9, 0.0, 2025-12-10 16:50:26.528
216.0, -4191.197954559083, -4203.625524476233, -4242.629318550744, -4253.626376822755, 3401.8908026088243, 3413.1784335587545, -102008.35490326345, -43205.4973489639, 0.0, 0.0, 0.0, 193.0, 1.0, 1.0, 1.0, 1.0, 0.0, 1.0, 257.0, 257.0, 1.0, 1.7653998265325832E9, 0.0, 2025-12-10 16:50:26.532
217.0, -4191.421472003635, -4203.871393665242, -4242.830484250842, -4253.849894267309, 3402.002561331101, 3413.312544025486, -102008.04197884107, -43205.16207279707, 0.0, 0.0, 0.0, 193.0, 1.0, 1.0, 1.0, 1.0, 0.0, 1.0, 257.0, 257.0, 1.0, 1.7653998265375836E9, 0.0, 2025-12-10 16:50:26.537
218.0, -4190.706216181065, -4203.156137842672, -4242.2940423839145, -4253.380507633747, 3401.9131543532794, 3413.156081814299, -102007.75140616315, -43205.251479774895, 0.0, 0.0, 0.0, 193.0, 1.0, 1.0, 1.0, 1.0, 0.0, 1.0, 257.0, 257.0, 1.0, 1.7653998265405867E9, 0.0, 2025-12-10 16:50:26.540
219.0, -4190.147422569683, -4202.597344231289, -4241.623490050255, -4252.777010533454, 3401.667285164271, 3412.932564369746, -102007.05850208504, -43204.71503790797, 0.0, 0.0, 0.0, 193.0, 1.0, 1.0, 1.0, 1.0, 0.0, 1.0, 257.0, 257.0, 1.0, 1.7653998265446048E9, 0.0, 2025-12-10 16:50:26.544
220.0, -4190.482698736513, -4202.820861675842, -4241.779952261442, -4252.777010533454, 3401.3990642308077, 3412.731398669648, -102006.16443230683, -43203.73156115193, 0.0, 0.0, 0.0, 193.0, 1.0, 1.0, 1.0, 1.0, 0.0, 1.0, 257.0, 257.0, 1.0, 1.7653998265485992E9, 0.0, 2025-12-10 16:50:26.548
221.0, -4189.901553380675, -4202.127957597728, -4241.019992949962, -4251.882940755241, 3400.2367735191315, 3411.5914597024275, -102004.55510670604, -43202.233994273425, 0.0, 0.0, 0.0, 193.0, 1.0, 1.0, 1.0, 1.0, 0.0, 1.0, 257.0, 257.0, 1.0, 1.765399826552618E9, 0.0, 2025-12-10 16:50:26.552
222.0, -4189.856849891764, -4202.2620680644595, -4241.198806905604, -4252.106458199794, 3400.8179188749696, 3412.127901569355, -102004.95743810624, -43202.92689835154, 0.0, 0.0, 0.0, 193.0, 1.0, 1.0, 1.0, 1.0, 0.0, 1.0, 257.0, 257.0, 1.0, 1.7653998265566318E9, 0.0, 2025-12-10 16:50:26.556
223.0, -4189.476870236024, -4202.060902364362, -4240.975289461051, -4252.0394029664285, 3400.9520293417013, 3412.5078812250954, -102004.75627240614, -43203.08336056273, 0.0, 0.0, 0.0, 193.0, 1.0, 1.0, 1.0, 1.0, 0.0, 1.0, 257.0, 257.0, 1.0, 1.7653998265606751E9, 0.0, 2025-12-10 16:50:26.560
224.0, -4189.074538835828, -4201.479757008524, -4240.327088871848, -4251.324147143859, 3400.1697182857656, 3411.546756213517, -102003.1245950609, -43201.474034961946, 0.0, 0.0, 0.0, 193.0, 1.0, 1.0, 1.0, 1.0, 0.0, 1.0, 257.0, 257.0, 1.0, 1.7653998265646608E9, 0.0, 2025-12-10 16:50:26.564
225.0, -4187.152288812672, -4199.35634128527, -4238.270728381959, -4249.088972698328, 3397.867488606869, 3409.222174790165, -102000.10710955944, -43198.3447907382, 0.0, 0.0, 0.0, 193.0, 1.0, 1.0, 1.0, 1.0, 0.0, 1.0, 257.0, 257.0, 1.0, 1.7653998265676484E9, 0.0, 2025-12-10 16:50:26.567
226.0, -4187.912248124153, -4200.16100408566, -4239.254205137992, -4250.139504687727, 3399.2980002520085, 3410.6079829463943, -102001.20234503775, -43199.68589540552, 0.0, 0.0, 0.0, 193.0, 1.0, 1.0, 1.0, 1.0, 0.0, 1.0, 257.0, 257.0, 1.0, 1.7653998265716896E9, 0.0, 2025-12-10 16:50:26.571
227.0, -4188.895724880186, -4201.256239563971, -4240.483551083034, -4251.41355412168, 3401.0414363195227, 3412.3067155249973, -102002.54344970506, -43201.36227623967, 0.0, 0.0, 0.0, 193.0, 1.0, 1.0, 1.0, 1.0, 0.0, 1.0, 257.0, 257.0, 1.0, 1.7653998265766742E9, 0.0, 2025-12-10 16:50:26.576
228.0, -4189.8792016362195, -4202.150309342183, -4241.310565627881, -4252.17351343316, 3401.734340397637, 3413.066674836478, -102002.56580144953, -43201.42933147304, 0.0, 0.0, 0.0, 193.0, 1.0, 1.0, 1.0, 1.0, 0.0, 1.0, 257.0, 257.0, 1.0, 1.7653998265806575E9, 0.0, 2025-12-10 16:50:26.580
229.0, -4189.074538835828, -4201.21153607506, -4240.148274916205, -4250.988870977029, 3400.1697182857656, 3411.5020527246065, -102000.48708921518, -43199.305915749785, 0.0, 0.0, 0.0, 193.0, 1.0, 1.0, 1.0, 1.0, 0.0, 1.0, 257.0, 257.0, 1.0, 1.7653998265846555E9, 0.0, 2025-12-10 16:50:26.584
230.0, -4189.365111513747, -4201.502108752979, -4240.46119933858, -4251.368850632769, 3400.683808408238, 3411.993791102623, -102000.75531014864, -43199.7976541278, 0.0, 0.0, 0.0, 193.0, 1.0, 1.0, 1.0, 1.0, 0.0, 1.0, 257.0, 257.0, 1.0, 1.76539982658875E9, 0.0, 2025-12-10 16:50:26.588
231.0, -4189.655684191666, -4201.882088408719, -4240.997641205507, -4251.972347733063, 3401.8237473754584, 3413.2454887921203, -102001.69408341576, -43200.98229658393, 0.0, 0.0, 0.0, 193.0, 1.0, 1.0, 1.0, 1.0, 0.0, 1.0, 257.0, 257.0, 1.0, 1.7653998265927444E9, 0.0, 2025-12-10 16:50:26.592
232.0, -4189.342759769293, -4201.658570964167, -4240.572958060856, -4251.570016332867, 3401.4661194641735, 3412.9549161142013, -102000.64355142636, -43200.02117157235, 0.0, 0.0, 0.0, 193.0, 1.0, 1.0, 1.0, 1.0, 0.0, 1.0, 257.0, 257.0, 1.0, 1.765399826595733E9, 0.0, 2025-12-10 16:50:26.595
233.0, -4189.0521870913735, -4201.367998286248, -4240.148274916205, -4251.190036677127, 3400.773215386059, 3412.083198080444, -101999.07892931449, -43198.47890120494, 0.0, 0.0, 0.0, 193.0, 1.0, 1.0, 1.0, 1.0, 0.0, 1.0, 257.0, 257.0, 1.0, 1.7653998265996752E9, 0.0, 2025-12-10 16:50:26.599
234.0, -4189.8792016362195, -4202.373826786737, -4241.26586213897, -4252.17351343316, 3401.935506097735, 3413.156081814299, -101999.83888862598, -43199.46237796097, 0.0, 0.0, 0.0, 193.0, 1.0, 1.0, 1.0, 1.0, 0.0, 1.0, 257.0, 257.0, 1.0, 1.7653998266047251E9, 0.0, 2025-12-10 16:50:26.604
235.0, -4190.683864436611, -4203.223193076038, -4242.271690639459, -4253.246397167015, 3403.4777764651512, 3414.743055670626, -102001.13528980438, -43201.20581402848, 0.0, 0.0, 0.0, 193.0, 1.0, 1.0, 1.0, 1.0, 0.0, 1.0, 257.0, 257.0, 1.0, 1.7653998266088796E9, 0.0, 2025-12-10 16:50:26.608
236.0, -4189.812146402854, -4202.195012831094, -4241.310565627881, -4252.3299756443475, 3402.606058431394, 3413.8489858924136, -101999.66007467033, -43199.82000587225, 0.0, 0.0, 0.0, 193.0, 1.0, 1.0, 1.0, 1.0, 0.0, 1.0, 257.0, 257.0, 1.0, 1.7653998266127758E9, 0.0, 2025-12-10 16:50:26.612
237.0, -4190.527402225423, -4202.709102953566, -4241.757600516988, -4252.598196577811, 3402.516651453573, 3413.7595789145926, -101998.96717059222, -43199.03769481632, 0.0, 0.0, 0.0, 193.0, 1.0, 1.0, 1.0, 1.0, 0.0, 1.0, 257.0, 257.0, 1.0, 1.7653998266167657E9, 0.0, 2025-12-10 16:50:26.616
238.0, -4191.332065025815, -4203.558469242867, -4242.495208084012, -4253.335804144836, 3403.298962509509, 3414.5195382260727, -101999.3695019924, -43199.5964884277, 0.0, 0.0, 0.0, 193.0, 1.0, 1.0, 1.0, 1.0, 0.0, 1.0, 257.0, 257.0, 1.0, 1.765399826619753E9, 0.0, 2025-12-10 16:50:26.619
239.0, -4191.197954559083, -4203.580820987323, -4242.69637378411, -4253.55932158939, 3404.0365700765337, 3415.257145793098, -101999.7718333926, -43200.37879948364, 0.0, 0.0, 0.0, 193.0, 1.0, 1.0, 1.0, 1.0, 0.0, 1.0, 257.0, 257.0, 1.0, 1.765399826623759E9, 0.0, 2025-12-10 16:50:26.623
240.0, -4191.354416770269, -4203.781986687421, -4243.009298206484, -4253.849894267309, 3404.573011943461, 3415.77123591557, -101999.7718333926, -43200.53526169482, 0.0, 0.0, 0.0, 193.0, 1.0, 1.0, 1.0, 1.0, 0.0, 1.0, 257.0, 257.0, 1.0, 1.76539982662776E9, 0.0, 2025-12-10 16:50:26.627
241.0, -4191.823803403831, -4204.094911109795, -4243.098705184306, -4253.849894267309, 3404.3941979878186, 3415.547718471017, -101998.8777636144, -43199.574136683244, 0.0, 0.0, 0.0, 193.0, 1.0, 1.0, 1.0, 1.0, 0.0, 1.0, 257.0, 257.0, 1.0, 1.7653998266317585E9, 0.0, 2025-12-10 16:50:26.631
242.0, -4191.667341192644, -4203.893745409697, -4242.9422429731185, -4253.671080311666, 3404.0589218209893, 3415.2124423041873, -101998.09545255845, -43198.83652911622, 0.0, 0.0, 0.0, 193.0, 1.0, 1.0, 1.0, 1.0, 0.0, 1.0, 257.0, 257.0, 1.0, 1.7653998266367865E9, 0.0, 2025-12-10 16:50:26.636
243.0, -4191.644989448188, -4204.0278558764285, -4243.03164995094, -4253.939301245129, 3404.6847706657377, 3415.927698126757, -101998.4754322142, -43199.5964884277, 0.0, 0.0, 0.0, 193.0, 1.0, 1.0, 1.0, 1.0, 0.0, 1.0, 257.0, 257.0, 1.0, 1.7653998266407511E9, 0.0, 2025-12-10 16:50:26.640
244.0, -4192.337893526304, -4204.765463443454, -4243.903367984697, -4254.8557227677975, 3405.891764866324, 3417.1123405828885, -101999.3247985035, -43200.53526169482, 0.0, 0.0, 0.0, 193.0, 1.0, 1.0, 1.0, 1.0, 0.0, 1.0, 257.0, 257.0, 1.0, 1.765399826644777E9, 0.0, 2025-12-10 16:50:26.644
245.0, -4192.896687137686, -4205.0783878658285, -4244.104533684795, -4254.989833234529, 3405.7129509106817, 3416.8888231383353, -101998.49778395865, -43199.64119191661, 0.0, 0.0, 0.0, 193.0, 1.0, 1.0, 1.0, 1.0, 0.0, 1.0, 257.0, 257.0, 1.0, 1.7653998266488032E9, 0.0, 2025-12-10 16:50:26.648
246.0, -4191.488527237002, -4203.513765753957, -4242.383449361736, -4253.2687489114705, 3403.8130526319806, 3414.899517881813, -101995.9720368352, -43197.11544479316, 0.0, 0.0, 0.0, 193.0, 1.0, 1.0, 1.0, 1.0, 0.0, 1.0, 257.0, 257.0, 1.0, 1.765399826651816E9, 0.0, 2025-12-10 16:50:26.651
247.0, -4191.041492347896, -4203.267896564948, -4242.271690639459, -4253.134638444739, 3404.1036253098996, 3415.2347940486425, -101995.9720368352, -43197.40601747108, 0.0, 0.0, 0.0, 193.0, 1.0, 1.0, 1.0, 1.0, 0.0, 1.0, 257.0, 257.0, 1.0, 1.7653998266558E9, 0.0, 2025-12-10 16:50:26.655
248.0, -4194.036626104907, -4206.397140788691, -4245.736211030032, -4256.643862324222, 3407.903421867302, 3419.1687010727765, -101999.48126071469, -43201.20581402848, 0.0, 0.0, 0.0, 193.0, 1.0, 1.0, 1.0, 1.0, 0.0, 1.0, 257.0, 257.0, 1.0, 1.7653998266598165E9, 0.0, 2025-12-10 16:50:26.659
249.0, -4195.109509838761, -4207.40296928918, -4246.6973360416105, -4257.672042569166, 3408.7304364121483, 3419.995715617623, -101999.39185373687, -43201.22816577294, 0.0, 0.0, 0.0, 193.0, 1.0, 1.0, 1.0, 1.0, 0.0, 1.0, 257.0, 257.0, 1.0, 1.7653998266648376E9, 0.0, 2025-12-10 16:50:26.664
250.0, -4194.148384827183, -4206.419492533147, -4245.579748818845, -4256.465048368579, 3407.3669800003745, 3418.5652039724832, -101997.4249002248, -43199.149453538594, 0.0, 0.0, 0.0, 193.0, 1.0, 1.0, 1.0, 1.0, 0.0, 1.0, 257.0, 257.0, 1.0, 1.7653998266688128E9, 0.0, 2025-12-10 16:50:26.668
251.0, -4194.573067971834, -4207.090044866806, -4246.183245919138, -4257.2026559356045, 3408.2834015230424, 3419.5039772396062, -101998.16250779183, -43200.2446890169, 0.0, 0.0, 0.0, 193.0, 1.0, 1.0, 1.0, 1.0, 0.0, 1.0, 257.0, 257.0, 1.0, 1.7653998266728635E9, 0.0, 2025-12-10 16:50:26.672
252.0, -4195.35537902777, -4207.984114645018, -4247.256129652993, -4258.409650136191, 3409.870375379369, 3421.0462476070225, -101999.5259642036, -43201.943421595504, 0.0, 0.0, 0.0, 193.0, 1.0, 1.0, 1.0, 1.0, 0.0, 1.0, 257.0, 257.0, 1.0, 1.765399826676859E9, 0.0, 2025-12-10 16:50:26.676
253.0, -4196.11533833925, -4208.520556511946, -4247.949033731107, -4258.811981536386, 3410.071541079467, 3421.2921167960308, -101999.3247985035, -43201.83166287323, 0.0, 0.0, 0.0, 193.0, 1.0, 1.0, 1.0, 1.0, 0.0, 1.0, 257.0, 257.0, 1.0, 1.7653998266798332E9, 0.0, 2025-12-10 16:50:26.679
254.0, -4197.255277306471, -4209.504033267979, -4248.88780699823, -4259.661347825689, 3410.4962242241177, 3421.7838551740474, -101999.19068803678, -43201.541090195315, 0.0, 0.0, 0.0, 193.0, 1.0, 1.0, 1.0, 1.0, 0.0, 1.0, 257.0, 257.0, 1.0, 1.7653998266838837E9, 0.0, 2025-12-10 16:50:26.683
255.0, -4197.188222073105, -4209.436978034613, -4248.798400020409, -4259.773106547965, 3410.67503817976, 3421.9850208741454, -101999.07892931449, -43201.71990415095, 0.0, 0.0, 0.0, 193.0, 1.0, 1.0, 1.0, 1.0, 0.0, 1.0, 257.0, 257.0, 1.0, 1.7653998266878777E9, 0.0, 2025-12-10 16:50:26.687
0.0, -4197.277629050926, -4209.638143734711, -4249.156027931694, -4260.153086203705, 3411.5691079579724, 3422.9461458857236, -101999.66007467033, -43202.658677418076, 0.0, 0.0, 0.0, 193.0, 1.0, 1.0, 1.0, 1.0, 0.0, 1.0, 257.0, 257.0, 1.0, 1.7653998266928828E9, 0.0, 2025-12-10 16:50:26.692
1.0, -4195.802413916876, -4208.140576856205, -4247.434943608635, -4258.387298391735, 3409.9597823571903, 3421.3368202849415, -101997.31314150253, -43200.46820646146, 0.0, 0.0, 0.0, 193.0, 1.0, 1.0, 1.0, 1.0, 0.0, 1.0, 257.0, 257.0, 1.0, 1.7653998266968708E9, 0.0, 2025-12-10 16:50:26.696
2.0, -4193.299018537881, -4205.413664032658, -4244.417458107168, -4255.369812890269, 3406.472910222162, 3417.8275964054583, -101993.2227722672, -43196.24372675941, 0.0, 0.0, 0.0, 193.0, 1.0, 1.0, 1.0, 1.0, 0.0, 1.0, 257.0, 257.0, 1.0, 1.7653998267008743E9, 0.0, 2025-12-10 16:50:26.700
3.0, -4193.410777260158, -4205.570126243845, -4244.573920318356, -4255.660385568188, 3406.808186388992, 3417.9840586166456, -101993.08866180047, -43196.33313373722, 0.0, 0.0, 0.0, 193.0, 1.0, 1.0, 1.0, 1.0, 0.0, 1.0, 257.0, 257.0, 1.0, 1.7653998267039251E9, 0.0, 2025-12-10 16:50:26.703
4.0, -4194.371902271736, -4206.6430099777, -4245.892673241219, -4257.046193724417, 3408.6186776898717, 3419.9733638731677, -101994.76504263462, -43198.3447907382, 0.0, 0.0, 0.0, 193.0, 1.0, 1.0, 1.0, 1.0, 0.0, 1.0, 257.0, 257.0, 1.0, 1.765399826707919E9, 0.0, 2025-12-10 16:50:26.707
5.0, -4194.461309249557, -4206.799472188887, -4246.026783707951, -4257.135600702239, 3408.7304364121483, 3420.1074743398995, -101994.56387693452, -43198.188328527016, 0.0, 0.0, 0.0, 193.0, 1.0, 1.0, 1.0, 1.0, 0.0, 1.0, 257.0, 257.0, 1.0, 1.7653998267119E9, 0.0, 2025-12-10 16:50:26.711
6.0, -4193.097852837784, -4205.391312288202, -4244.283347640437, -4255.302757656903, 3406.539965455528, 3417.8275964054583, -101991.72520538869, -43195.28260174783, 0.0, 0.0, 0.0, 193.0, 1.0, 1.0, 1.0, 1.0, 0.0, 1.0, 257.0, 257.0, 1.0, 1.7653998267159371E9, 0.0, 2025-12-10 16:50:26.715
7.0, -4194.014274360451, -4206.218326833049, -4245.244472652015, -4256.196827435116, 3407.255221278098, 3418.5652039724832, -101992.12753678889, -43195.77434012584, 0.0, 0.0, 0.0, 193.0, 1.0, 1.0, 1.0, 1.0, 0.0, 1.0, 257.0, 257.0, 1.0, 1.7653998267209167E9, 0.0, 2025-12-10 16:50:26.720
8.0, -4195.578896472322, -4207.984114645018, -4247.144370930716, -4258.208484436093, 3409.736264912637, 3421.0238958625673, -101994.2733042566, -43198.45654946048, 0.0, 0.0, 0.0, 193.0, 1.0, 1.0, 1.0, 1.0, 0.0, 1.0, 257.0, 257.0, 1.0, 1.7653998267249227E9, 0.0, 2025-12-10 16:50:26.724
9.0, -4196.11533833925, -4208.408797789669, -4247.74786803101, -4258.811981536386, 3410.67503817976, 3421.9179656407796, -101994.65328391234, -43199.03769481632, 0.0, 0.0, 0.0, 193.0, 1.0, 1.0, 1.0, 1.0, 0.0, 1.0, 257.0, 257.0, 1.0, 1.765399826727932E9, 0.0, 2025-12-10 16:50:26.727
10.0, -4195.668303450144, -4207.7829489449205, -4246.965556975074, -4257.98496699154, 3409.378637001352, 3420.7109714401927, -101992.77573737809, -43197.003686070886, 0.0, 0.0, 0.0, 193.0, 1.0, 1.0, 1.0, 1.0, 0.0, 1.0, 257.0, 257.0, 1.0, 1.7653998267319489E9, 0.0, 2025-12-10 16:50:26.731
11.0, -4195.623599961234, -4207.894707667197, -4246.943205230618, -4257.917911758174, 3409.155119556799, 3420.442750506729, -101992.12753678889, -43196.37783722614, 0.0, 0.0, 0.0, 193.0, 1.0, 1.0, 1.0, 1.0, 0.0, 1.0, 257.0, 257.0, 1.0, 1.7653998267359726E9, 0.0, 2025-12-10 16:50:26.735
12.0, -4195.9812278725185, -4208.319390811848, -4247.457295353091, -4258.722574558566, 3410.2280032906538, 3421.448579007218, -101992.99925482264, -43197.74129363791, 0.0, 0.0, 0.0, 193.0, 1.0, 1.0, 1.0, 1.0, 0.0, 1.0, 257.0, 257.0, 1.0, 1.7653998267399466E9, 0.0, 2025-12-10 16:50:26.739
13.0, -4196.763538928454, -4209.101701867784, -4248.440772109124, -4259.750754803509, 3411.323238768964, 3422.521462741073, -101993.96037983423, -43198.814177371765, 0.0, 0.0, 0.0, 193.0, 1.0, 1.0, 1.0, 1.0, 0.0, 1.0, 257.0, 257.0, 1.0, 1.7653998267440128E9, 0.0, 2025-12-10 16:50:26.744
14.0, -4195.377730772225, -4207.492376267001, -4246.607929063789, -4257.828504780353, 3409.1104160678883, 3420.3309917844526, -101990.98759782167, -43195.84139535921, 0.0, 0.0, 0.0, 193.0, 1.0, 1.0, 1.0, 1.0, 0.0, 1.0, 257.0, 257.0, 1.0, 1.7653998267490704E9, 0.0, 2025-12-10 16:50:26.749
15.0, -4195.578896472322, -4207.492376267001, -4246.742039530521, -4257.806153035897, 3408.797491645514, 3420.0180673620785, -101990.20528676573, -43195.14849128109, 0.0, 0.0, 0.0, 193.0, 1.0, 1.0, 1.0, 1.0, 0.0, 1.0, 257.0, 257.0, 1.0, 1.7653998267530656E9, 0.0, 2025-12-10 16:50:26.753
16.0, -4195.310675538859, -4207.35826580027, -4246.764391274976, -4257.806153035897, 3409.0433608345224, 3420.3309917844526, -101990.38410072138, -43195.57317442574, 0.0, 0.0, 0.0, 193.0, 1.0, 1.0, 1.0, 1.0, 0.0, 1.0, 257.0, 257.0, 1.0, 1.7653998267560685E9, 0.0, 2025-12-10 16:50:26.756
17.0, -4195.0424546053955, -4207.112396611261, -4246.540873830423, -4257.761449546987, 3409.378637001352, 3420.6886196957375, -101990.31704548802, -43195.84139535921, 0.0, 0.0, 0.0, 193.0, 1.0, 1.0, 1.0, 1.0, 0.0, 1.0, 257.0, 257.0, 1.0, 1.7653998267600205E9, 0.0, 2025-12-10 16:50:26.760
18.0, -4195.73535868351, -4207.760597200465, -4247.07731569735, -4258.230836180548, 3409.6692096792713, 3420.934488884746, -101989.91471408782, -43195.46141570347, 0.0, 0.0, 0.0, 193.0, 1.0, 1.0, 1.0, 1.0, 0.0, 1.0, 257.0, 257.0, 1.0, 1.7653998267640293E9, 0.0, 2025-12-10 16:50:26.764
19.0, -4194.908344138664, -4206.866527422253, -4246.093838941317, -4257.247359424515, 3408.193994545221, 3419.5039772396062, -101988.03716755357, -43193.53916568031, 0.0, 0.0, 0.0, 193.0, 1.0, 1.0, 1.0, 1.0, 0.0, 1.0, 257.0, 257.0, 1.0, 1.765399826768054E9, 0.0, 2025-12-10 16:50:26.768
20.0, -4194.573067971834, -4206.575954744334, -4245.736211030032, -4256.979138491051, 3408.1716428007658, 3419.481625495151, -101987.74659487566, -43193.561517424765, 0.0, 0.0, 0.0, 193.0, 1.0, 1.0, 1.0, 1.0, 0.0, 1.0, 257.0, 257.0, 1.0, 1.7653998267720575E9, 0.0, 2025-12-10 16:50:26.772
21.0, -4194.438957505102, -4206.464196022057, -4245.691507541122, -4257.023841979962, 3408.5963259454165, 3419.839253406436, -101987.88070534238, -43194.07560754724, 0.0, 0.0, 0.0, 193.0, 1.0, 1.0, 1.0, 1.0, 0.0, 1.0, 257.0, 257.0, 1.0, 1.7653998267760272E9, 0.0, 2025-12-10 16:50:26.776
22.0, -4195.601248216778, -4207.537079755912, -4246.853798252797, -4258.096725713816, 3409.5350992125395, 3420.845081906925, -101988.21598150922, -43194.45558720298, 0.0, 0.0, 0.0, 193.0, 1.0, 1.0, 1.0, 1.0, 0.0, 1.0, 257.0, 257.0, 1.0, 1.7653998267810361E9, 0.0, 2025-12-10 16:50:26.781
23.0, -4196.607076717267, -4208.520556511946, -4247.74786803101, -4258.923740258663, 3409.9150788682796, 3421.180358073754, -101988.14892627584, -43194.321476736244, 0.0, 0.0, 0.0, 193.0, 1.0, 1.0, 1.0, 1.0, 0.0, 1.0, 257.0, 257.0, 1.0, 1.765399826784052E9, 0.0, 2025-12-10 16:50:26.784
24.0, -4195.578896472322, -4207.626486733733, -4246.809094763887, -4258.096725713816, 3409.132767812344, 3420.3980470178185, -101987.07604254199, -43193.40505521358, 0.0, 0.0, 0.0, 193.0, 1.0, 1.0, 1.0, 1.0, 0.0, 1.0, 257.0, 257.0, 1.0, 1.765399826788066E9, 0.0, 2025-12-10 16:50:26.788
25.0, -4196.025931361429, -4208.229983834027, -4247.613757564278, -4259.102554214305, 3410.5632794574835, 3421.806206918503, -101988.08187104248, -43194.85791860318, 0.0, 0.0, 0.0, 193.0, 1.0, 1.0, 1.0, 1.0, 0.0, 1.0, 257.0, 257.0, 1.0, 1.7653998267920473E9, 0.0, 2025-12-10 16:50:26.792
26.0, -4195.2212685610375, -4207.35826580027, -4246.630280808244, -4258.163780947182, 3409.57980270145, 3420.86743365138, -101986.49489718616, -43193.38270346913, 0.0, 0.0, 0.0, 193.0, 1.0, 1.0, 1.0, 1.0, 0.0, 1.0, 257.0, 257.0, 1.0, 1.765399826796059E9, 0.0, 2025-12-10 16:50:26.796
27.0, -4194.1036813382725, -4206.173623344138, -4245.2891761409255, -4256.554455346401, 3407.612849189383, 3418.989887117134, -101983.99150180716, -43190.81225285676, 0.0, 0.0, 0.0, 193.0, 1.0, 1.0, 1.0, 1.0, 0.0, 1.0, 257.0, 257.0, 1.0, 1.7653998268001409E9, 0.0, 2025-12-10 16:50:26.800
28.0, -4193.9248673826305, -4205.950105899586, -4245.177417418649, -4256.465048368579, 3407.4340352337404, 3418.7663696725813, -101983.61152215142, -43190.52168017885, 0.0, 0.0, 0.0, 193.0, 1.0, 1.0, 1.0, 1.0, 0.0, 1.0, 257.0, 257.0, 1.0, 1.7653998268040857E9, 0.0, 2025-12-10 16:50:26.804
29.0, -4192.896687137686, -4205.0783878658285, -4244.417458107168, -4255.839199523831, 3407.098759066911, 3418.274631294564, -101983.14213551786, -43190.32051447875, 0.0, 0.0, 0.0, 193.0, 1.0, 1.0, 1.0, 1.0, 0.0, 1.0, 257.0, 257.0, 1.0, 1.7653998268090613E9, 0.0, 2025-12-10 16:50:26.809
30.0, -4193.209611560061, -4205.458367521568, -4244.685679040633, -4256.12977220175, 3407.4340352337404, 3418.7216661836705, -101982.98567330667, -43190.36521796766, 0.0, 0.0, 0.0, 193.0, 1.0, 1.0, 1.0, 1.0, 0.0, 1.0, 257.0, 257.0, 1.0, 1.7653998268121047E9, 0.0, 2025-12-10 16:50:26.812
31.0, -4195.713006939055, -4207.827652433831, -4247.03261220844, -4258.454353625101, 3409.3115817679864, 3420.6662679512824, -101984.32677797398, -43191.616915657156, 0.0, 0.0, 0.0, 193.0, 1.0, 1.0, 1.0, 1.0, 0.0, 1.0, 257.0, 257.0, 1.0, 1.7653998268161027E9, 0.0, 2025-12-10 16:50:26.816
32.0, -4194.282495293915, -4206.307733810871, -4245.423286607657, -4256.755621046498, 3407.612849189383, 3418.8557766504023, -101982.13630701737, -43189.649962145086, 0.0, 0.0, 0.0, 193.0, 1.0, 1.0, 1.0, 1.0, 0.0, 1.0, 257.0, 257.0, 1.0, 1.7653998268201127E9, 0.0, 2025-12-10 16:50:26.820
33.0, -4194.841288905298, -4207.02298963344, -4246.384411619236, -4257.8508565248085, 3409.155119556799, 3420.3533435289078, -101983.38800470687, -43191.21458425696, 0.0, 0.0, 0.0, 193.0, 1.0, 1.0, 1.0, 1.0, 0.0, 1.0, 257.0, 257.0, 1.0, 1.7653998268240757E9, 0.0, 2025-12-10 16:50:26.824
34.0, -4194.774233671932, -4206.978286144529, -4246.272652896959, -4257.806153035897, 3409.2668782790756, 3420.4651022511844, -101983.0750802845, -43191.21458425696, 0.0, 0.0, 0.0, 193.0, 1.0, 1.0, 1.0, 1.0, 0.0, 1.0, 257.0, 257.0, 1.0, 1.7653998268281233E9, 0.0, 2025-12-10 16:50:26.828
35.0, -4194.863640649753, -4206.9559344000745, -4246.2279494080485, -4257.582635591345, 3408.775139901059, 3419.9510121287126, -101981.93514131727, -43190.141700523105, 0.0, 0.0, 0.0, 193.0, 1.0, 1.0, 1.0, 1.0, 0.0, 1.0, 257.0, 257.0, 1.0, 1.7653998268321557E9, 0.0, 2025-12-10 16:50:26.832
36.0, -4194.506012738468, -4206.68771346661, -4245.780914518942, -4257.135600702239, 3408.059884078489, 3419.3698667728745, -101980.81755409451, -43189.11352027816, 0.0, 0.0, 0.0, 193.0, 1.0, 1.0, 1.0, 1.0, 0.0, 1.0, 257.0, 257.0, 1.0, 1.7653998268371427E9, 0.0, 2025-12-10 16:50:26.837
37.0, -4194.885992394208, -4207.246507077993, -4246.540873830423, -4257.806153035897, 3409.0433608345224, 3420.3533435289078, -101981.75632736163, -43190.32051447875, 0.0, 0.0, 0.0, 193.0, 1.0, 1.0, 1.0, 1.0, 0.0, 1.0, 257.0, 257.0, 1.0, 1.7653998268401191E9, 0.0, 2025-12-10 16:50:26.840
38.0, -4194.885992394208, -4207.246507077993, -4246.652632552699, -4257.94026350263, 3409.4009887458074, 3420.778026673559, -101981.823382595, -43190.633438901124, 0.0, 0.0, 0.0, 193.0, 1.0, 1.0, 1.0, 1.0, 0.0, 1.0, 257.0, 257.0, 1.0, 1.7653998268441277E9, 0.0, 2025-12-10 16:50:26.844
39.0, -4193.276666793427, -4205.54777449939, -4244.573920318356, -4256.040365223928, 3407.0540555780003, 3418.4757969946622, -101978.94000756026, -43187.63830514411, 0.0, 0.0, 0.0, 193.0, 1.0, 1.0, 1.0, 1.0, 0.0, 1.0, 257.0, 257.0, 1.0, 1.7653998268481548E9, 0.0, 2025-12-10 16:50:26.848
40.0, -4191.846155148287, -4204.07255936534, -4242.852835995297, -4254.252225667504, 3405.131805554844, 3416.419436504774, -101976.3695569479, -43185.22431674294, 0.0, 0.0, 0.0, 193.0, 1.0, 1.0, 1.0, 1.0, 0.0, 1.0, 257.0, 257.0, 1.0, 1.7653998268521476E9, 0.0, 2025-12-10 16:50:26.852
41.0, -4192.606114459767, -4204.854870421275, -4243.724554029054, -4255.190998934627, 3406.4282067332515, 3417.738189427637, -101977.4200889373, -43186.5430696658, 0.0, 0.0, 0.0, 193.0, 1.0, 1.0, 1.0, 1.0, 0.0, 1.0, 257.0, 257.0, 1.0, 1.76539982685615E9, 0.0, 2025-12-10 16:50:26.856
42.0, -4194.014274360451, -4206.419492533147, -4245.557397074389, -4256.979138491051, 3408.6410294343273, 3419.906308639802, -101979.16352500481, -43188.532374922324, 0.0, 0.0, 0.0, 193.0, 1.0, 1.0, 1.0, 1.0, 0.0, 1.0, 257.0, 257.0, 1.0, 1.7653998268601563E9, 0.0, 2025-12-10 16:50:26.860
43.0, -4194.394254016192, -4206.732416955521, -4245.7585627744875, -4257.180304191149, 3408.6410294343273, 3419.861605150891, -101978.6270831379, -43187.92887782203, 0.0, 0.0, 0.0, 193.0, 1.0, 1.0, 1.0, 1.0, 0.0, 1.0, 257.0, 257.0, 1.0, 1.7653998268651865E9, 0.0, 2025-12-10 16:50:26.865
44.0, -4193.9248673826305, -4206.084216366317, -4245.132713929738, -4256.397993135213, 3407.478738722651, 3418.7887214170364, -101977.04010928156, -43186.38660745462, 0.0, 0.0, 0.0, 193.0, 1.0, 1.0, 1.0, 1.0, 0.0, 1.0, 257.0, 257.0, 1.0, 1.7653998268681767E9, 0.0, 2025-12-10 16:50:26.868
45.0, -4194.30484703837, -4206.68771346661, -4245.982080219041, -4257.426173380158, 3408.9539538567014, 3420.219233062176, -101978.4706209267, -43188.37591271113, 0.0, 0.0, 0.0, 193.0, 1.0, 1.0, 1.0, 1.0, 0.0, 1.0, 257.0, 257.0, 1.0, 1.7653998268712232E9, 0.0, 2025-12-10 16:50:26.871
46.0, -4197.188222073105, -4210.062826879362, -4249.826580265353, -4261.471839126568, 3414.1842620592433, 3425.471893009173, -101983.83503959597, -43194.52264243634, 0.0, 0.0, 0.0, 193.0, 1.0, 1.0, 1.0, 1.0, 0.0, 1.0, 257.0, 257.0, 1.0, 1.7653998268761857E9, 0.0, 2025-12-10 16:50:26.876
47.0, -4198.909306396164, -4211.895669924697, -4251.949995988607, -4263.505847872001, 3416.553546971506, 3427.8635296658913, -101985.91375183032, -43196.95898258197, 0.0, 0.0, 0.0, 193.0, 1.0, 1.0, 1.0, 1.0, 0.0, 1.0, 257.0, 257.0, 1.0, 1.765399826880175E9, 0.0, 2025-12-10 16:50:26.880
48.0, -4197.836422662309, -4210.711027468566, -4250.832408765842, -4262.343557160325, 3415.1677388152766, 3426.455369765207, -101984.30442622953, -43195.50611919238, 0.0, 0.0, 0.0, 193.0, 1.0, 1.0, 1.0, 1.0, 0.0, 1.0, 257.0, 257.0, 1.0, 1.7653998268841825E9, 0.0, 2025-12-10 16:50:26.884
49.0, -4196.987056373007, -4209.861661179264, -4250.117152943272, -4261.673004826665, 3414.698352181715, 3426.053038365011, -101983.9244465738, -43195.48376744792, 0.0, 0.0, 0.0, 193.0, 1.0, 1.0, 1.0, 1.0, 0.0, 1.0, 257.0, 257.0, 1.0, 1.7653998268882446E9, 0.0, 2025-12-10 16:50:26.888
50.0, -4199.624562218733, -4212.655629236177, -4253.335804144836, -4265.025766494962, 3418.3640382723856, 3429.8081314335027, -101987.70189138674, -43199.64119191661, 0.0, 0.0, 0.0, 193.0, 1.0, 1.0, 1.0, 1.0, 0.0, 1.0, 257.0, 257.0, 1.0, 1.765399826892223E9, 0.0, 2025-12-10 16:50:26.892
51.0, -4200.764501185954, -4213.817919947854, -4254.69926055661, -4266.143353717727, 3419.3475150284194, 3430.7469047006257, -101988.46185069822, -43200.624668672644, 0.0, 0.0, 0.0, 193.0, 1.0, 1.0, 1.0, 1.0, 0.0, 1.0, 257.0, 257.0, 1.0, 1.7653998268964708E9, 0.0, 2025-12-10 16:50:26.896
52.0, -4199.9151348966525, -4212.9462019140965, -4253.64872856721, -4264.89165602823, 3417.4923202386285, 3428.8246546774694, -101986.13726927487, -43198.188328527016, 0.0, 0.0, 0.0, 193.0, 1.0, 1.0, 1.0, 1.0, 0.0, 1.0, 257.0, 257.0, 1.0, 1.765399826899234E9, 0.0, 2025-12-10 16:50:26.899
53.0, -4199.1551755851715, -4212.11918736925, -4252.84406576682, -4263.930531016652, 3416.218270804676, 3427.483550010151, -101984.88557158537, -43196.95898258197, 0.0, 0.0, 0.0, 193.0, 1.0, 1.0, 1.0, 1.0, 0.0, 1.0, 257.0, 257.0, 1.0, 1.765399826904234E9, 0.0, 2025-12-10 16:50:26.904
54.0, -4199.557506985368, -4212.566222258356, -4253.514618100478, -4264.578731605856, 3417.0899888384333, 3428.2658610660865, -101985.69023438577, -43198.12127329365, 0.0, 0.0, 0.0, 193.0, 1.0, 1.0, 1.0, 1.0, 0.0, 1.0, 257.0, 257.0, 1.0, 1.7653998269082513E9, 0.0, 2025-12-10 16:50:26.908
55.0, -4200.272762807937, -4213.393236803203, -4254.475743112057, -4265.450449639613, 3417.9170033832793, 3429.0481721220226, -101986.11491753042, -43198.680066905035, 0.0, 0.0, 0.0, 193.0, 1.0, 1.0, 1.0, 1.0, 0.0, 1.0, 257.0, 257.0, 1.0, 1.7653998269122493E9, 0.0, 2025-12-10 16:50:26.912
56.0, -4201.747977941987, -4214.779044959431, -4255.7944960349205, -4266.70214732911, 3418.6993144392154, 3429.8304831779583, -101986.33843497497, -43198.85888086067, 0.0, 0.0, 0.0, 193.0, 1.0, 1.0, 1.0, 1.0, 0.0, 1.0, 257.0, 257.0, 1.0, 1.7653998269162533E9, 0.0, 2025-12-10 16:50:26.916
57.0, -4203.781986687421, -4216.634239749222, -4257.873208269263, -4268.8255630523645, 3420.442750506729, 3431.708029712204, -101987.90305708683, -43200.557613439276, 0.0, 0.0, 0.0, 193.0, 1.0, 1.0, 1.0, 1.0, 0.0, 1.0, 257.0, 257.0, 1.0, 1.7653998269202693E9, 0.0, 2025-12-10 16:50:26.920
58.0, -4204.49724250999, -4217.461254294069, -4258.834333280842, -4269.876095041764, 3421.806206918503, 3432.9820791461566, -101989.13240303188, -43202.1445872956, 0.0, 0.0, 0.0, 193.0, 1.0, 1.0, 1.0, 1.0, 0.0, 1.0, 257.0, 257.0, 1.0, 1.76539982692325E9, 0.0, 2025-12-10 16:50:26.923
59.0, -4203.558469242867, -4216.567184515856, -4257.94026350263, -4268.870266541275, 3420.889785395835, 3432.1327128568546, -101987.92540883129, -43201.049351817295, 0.0, 0.0, 0.0, 193.0, 1.0, 1.0, 1.0, 1.0, 0.0, 1.0, 257.0, 257.0, 1.0, 1.7653998269272652E9, 0.0, 2025-12-10 16:50:26.927
60.0, -4202.217364575549, -4215.159024615172, -4256.241530924026, -4267.08212698485, 3418.587555716939, 3429.8528349224134, -101985.08673728547, -43198.23303201592, 0.0, 0.0, 0.0, 193.0, 1.0, 1.0, 1.0, 1.0, 0.0, 1.0, 257.0, 257.0, 1.0, 1.7653998269323134E9, 0.0, 2025-12-10 16:50:26.932
61.0, -4201.92679189763, -4214.734341470521, -4255.705089057099, -4266.456278140102, 3417.604078960905, 3428.8470064219246, -101983.87974308488, -43197.09309304871, 0.0, 0.0, 0.0, 193.0, 1.0, 1.0, 1.0, 1.0, 0.0, 1.0, 257.0, 257.0, 1.0, 1.7653998269362895E9, 0.0, 2025-12-10 16:50:26.936
62.0, -4202.127957597728, -4215.02491414844, -4256.219179179571, -4266.925664773663, 3418.386390016841, 3429.5622622444944, -101984.43853669627, -43197.964811082464, 0.0, 0.0, 0.0, 193.0, 1.0, 1.0, 1.0, 1.0, 0.0, 1.0, 257.0, 257.0, 1.0, 1.7653998269402907E9, 0.0, 2025-12-10 16:50:26.940
63.0, -4203.40200703168, -4216.366018815758, -4257.828504780353, -4268.534990374445, 3420.219233062176, 3431.4398087787404, -101985.91375183032, -43199.75295063889, 0.0, 0.0, 0.0, 193.0, 1.0, 1.0, 1.0, 1.0, 0.0, 1.0, 257.0, 257.0, 1.0, 1.7653998269443047E9, 0.0, 2025-12-10 16:50:26.944
64.0, -4203.35730354277, -4216.298963582392, -4257.582635591345, -4268.0656037408835, 3419.4145702617852, 3430.7245529561706, -101984.66205414082, -43198.43419771602, 0.0, 0.0, 0.0, 193.0, 1.0, 1.0, 1.0, 1.0, 0.0, 1.0, 257.0, 257.0, 1.0, 1.765399826948315E9, 0.0, 2025-12-10 16:50:26.948
65.0, -4202.329123297825, -4215.1143211262615, -4256.219179179571, -4266.657443840199, 3417.6264307053607, 3428.936413399746, -101982.35982446192, -43196.154319781584, 0.0, 0.0, 0.0, 193.0, 1.0, 1.0, 1.0, 1.0, 0.0, 1.0, 257.0, 257.0, 1.0, 1.765399826951335E9, 0.0, 2025-12-10 16:50:26.951
66.0, -4202.217364575549, -4215.047265892896, -4256.17447569066, -4266.70214732911, 3417.872299894369, 3429.1375790998436, -101982.33747271747, -43196.51194769287, 0.0, 0.0, 0.0, 193.0, 1.0, 1.0, 1.0, 1.0, 0.0, 1.0, 257.0, 257.0, 1.0, 1.765399826955376E9, 0.0, 2025-12-10 16:50:26.955
67.0, -4202.776158186932, -4215.6954664821, -4256.979138491051, -4267.551513618411, 3418.9451836282237, 3430.2104628336983, -101983.18683900677, -43197.629534915635, 0.0, 0.0, 0.0, 193.0, 1.0, 1.0, 1.0, 1.0, 0.0, 1.0, 257.0, 257.0, 1.0, 1.7653998269603257E9, 0.0, 2025-12-10 16:50:26.960
68.0, -4203.044379120395, -4215.986039160018, -4257.046193724417, -4267.640920596233, 3418.7887214170364, 3429.942241900235, -101982.4715831842, -43196.80252037079, 0.0, 0.0, 0.0, 193.0, 1.0, 1.0, 1.0, 1.0, 0.0, 1.0, 257.0, 257.0, 1.0, 1.765399826964327E9, 0.0, 2025-12-10 16:50:26.964
69.0, -4202.239716320004, -4215.136672870716, -4255.906254757197, -4266.433926395646, 3417.0899888384333, 3428.2435093216313, -101980.3705192054, -43194.679104647534, 0.0, 0.0, 0.0, 193.0, 1.0, 1.0, 1.0, 1.0, 0.0, 1.0, 257.0, 257.0, 1.0, 1.7653998269683497E9, 0.0, 2025-12-10 16:50:26.968
70.0, -4201.256239563971, -4214.264954836959, -4255.056888467895, -4265.651615339711, 3416.1735673157655, 3427.4388465212405, -101979.40939419382, -43193.96384882496, 0.0, 0.0, 0.0, 193.0, 1.0, 1.0, 1.0, 1.0, 0.0, 1.0, 257.0, 257.0, 1.0, 1.7653998269723291E9, 0.0, 2025-12-10 16:50:26.972
71.0, -4202.172661086638, -4215.248431592993, -4256.196827435116, -4266.836257795841, 3417.671134194271, 3428.958765144201, -101980.70579537223, -43195.662581403565, 0.0, 0.0, 0.0, 193.0, 1.0, 1.0, 1.0, 1.0, 0.0, 1.0, 257.0, 257.0, 1.0, 1.76539982697538E9, 0.0, 2025-12-10 16:50:26.975
72.0, -4201.278591308426, -4214.287306581415, -4255.1462954457165, -4265.696318828621, 3416.352381271408, 3427.707067454704, -101978.82824883799, -43193.94149708051, 0.0, 0.0, 0.0, 193.0, 1.0, 1.0, 1.0, 1.0, 0.0, 1.0, 257.0, 257.0, 1.0, 1.7653998269795313E9, 0.0, 2025-12-10 16:50:26.979
73.0, -4200.809204674864, -4213.616754247756, -4254.36398438978, -4264.824600794864, 3415.257145793098, 3426.5000732541175, -101977.0177575371, -43192.01924705735, 0.0, 0.0, 0.0, 193.0, 1.0, 1.0, 1.0, 1.0, 0.0, 1.0, 257.0, 257.0, 1.0, 1.7653998269834175E9, 0.0, 2025-12-10 16:50:26.983
74.0, -4202.440882020102, -4215.248431592993, -4256.152123946205, -4266.70214732911, 3417.0452853495226, 3428.2658610660865, -101978.51532441561, -43193.76268312486, 0.0, 0.0, 0.0, 193.0, 1.0, 1.0, 1.0, 1.0, 0.0, 1.0, 257.0, 257.0, 1.0, 1.7653998269874115E9, 0.0, 2025-12-10 16:50:26.987
75.0, -4201.949143642085, -4215.0025624039845, -4255.839199523831, -4266.635092095744, 3417.1793958162543, 3428.355268043908, -101978.4706209267, -43194.14266278061, 0.0, 0.0, 0.0, 193.0, 1.0, 1.0, 1.0, 1.0, 0.0, 1.0, 257.0, 257.0, 1.0, 1.7653998269925673E9, 0.0, 2025-12-10 16:50:26.992
76.0, -4199.311637796359, -4212.2980013248925, -4252.955824489096, -4263.684661827643, 3414.1395585703326, 3425.360134286897, -101974.93904530276, -43190.7451976234, 0.0, 0.0, 0.0, 193.0, 1.0, 1.0, 1.0, 1.0, 0.0, 1.0, 257.0, 257.0, 1.0, 1.7653998269964247E9, 0.0, 2025-12-10 16:50:26.996
77.0, -4197.791719173399, -4210.487510024012, -4250.944167488118, -4261.583597848845, 3411.3679422578743, 3422.6779249522597, -101971.80980107901, -43187.45949118847, 0.0, 0.0, 0.0, 193.0, 1.0, 1.0, 1.0, 1.0, 0.0, 1.0, 257.0, 257.0, 1.0, 1.7653998270003917E9, 0.0, 2025-12-10 16:50:27.000
78.0, -4198.618733718245, -4211.202765846582, -4251.726478544054, -4262.343557160325, 3412.0161428470783, 3423.415532519285, -101972.3238912015, -43187.95122956648, 0.0, 0.0, 0.0, 193.0, 1.0, 1.0, 1.0, 1.0, 0.0, 1.0, 257.0, 257.0, 1.0, 1.7653998270034227E9, 0.0, 2025-12-10 16:50:27.003
79.0, -4197.232925562015, -4209.92871641263, -4250.430077365646, -4261.091859470828, 3411.122073068866, 3422.521462741073, -101971.20630397873, -43187.30302897728, 0.0, 0.0, 0.0, 193.0, 1.0, 1.0, 1.0, 1.0, 0.0, 1.0, 257.0, 257.0, 1.0, 1.7653998270076592E9, 0.0, 2025-12-10 16:50:27.007
80.0, -4198.238754062504, -4211.046303635395, -4251.570016332867, -4262.2541501825035, 3412.440825991729, 3423.750808686115, -101972.05567026803, -43188.30885747777, 0.0, 0.0, 0.0, 193.0, 1.0, 1.0, 1.0, 1.0, 0.0, 1.0, 257.0, 257.0, 1.0, 1.7653998270114424E9, 0.0, 2025-12-10 16:50:27.011
81.0, -4198.529326740423, -4211.202765846582, -4251.681775055144, -4262.120039715772, 3412.083198080444, 3423.348477285919, -101970.8710278119, -43187.191270255, 0.0, 0.0, 0.0, 193.0, 1.0, 1.0, 1.0, 1.0, 0.0, 1.0, 257.0, 257.0, 1.0, 1.7653998270155947E9, 0.0, 2025-12-10 16:50:27.015
82.0, -4197.3893877732025, -4209.97341990154, -4250.407725621191, -4260.801286792909, 3410.4962242241177, 3421.895613896324, -101968.88172255538, -43185.2913719763, 0.0, 0.0, 0.0, 193.0, 1.0, 1.0, 1.0, 1.0, 0.0, 1.0, 257.0, 257.0, 1.0, 1.7653998270204325E9, 0.0, 2025-12-10 16:50:27.020
83.0, -4199.490451752002, -4212.163890858161, -4253.022879722462, -4263.46114438309, 3413.4913579811287, 3424.9354511422457, -101971.74274584565, -43188.4429679445, 0.0, 0.0, 0.0, 193.0, 1.0, 1.0, 1.0, 1.0, 0.0, 1.0, 257.0, 257.0, 1.0, 1.7653998270244343E9, 0.0, 2025-12-10 16:50:27.024
84.0, -4198.506974995968, -4211.158062357672, -4251.882940755241, -4262.477667627057, 3412.641991691827, 3424.063733108489, -101970.53575164506, -43187.347732466194, 0.0, 0.0, 0.0, 193.0, 1.0, 1.0, 1.0, 1.0, 0.0, 1.0, 257.0, 257.0, 1.0, 1.7653998270286489E9, 0.0, 2025-12-10 16:50:27.028
85.0, -4196.897649395186, -4209.325219312336, -4249.781876776442, -4260.331900159347, 3410.0044858461006, 3421.4038755183074, -101967.33945218795, -43184.15143300908, 0.0, 0.0, 0.0, 193.0, 1.0, 1.0, 1.0, 1.0, 0.0, 1.0, 257.0, 257.0, 1.0, 1.765399827031608E9, 0.0, 2025-12-10 16:50:27.031
86.0, -4196.495317994991, -4208.83348093432, -4249.200731420605, -4259.7284030590545, 3408.998657345612, 3420.4651022511844, -101965.95364403173, -43182.87738357513, 0.0, 0.0, 0.0, 193.0, 1.0, 1.0, 1.0, 1.0, 0.0, 1.0, 257.0, 257.0, 1.0, 1.7653998270354502E9, 0.0, 2025-12-10 16:50:27.035
87.0, -4197.679960451122, -4210.263992579459, -4250.675946554655, -4261.404783893202, 3410.9432591132236, 3422.3650005298855, -101967.7194318437, -43184.911392320566, 0.0, 0.0, 0.0, 193.0, 1.0, 1.0, 1.0, 1.0, 0.0, 1.0, 257.0, 257.0, 1.0, 1.7653998270394793E9, 0.0, 2025-12-10 16:50:27.039
88.0, -4199.73632094101, -4212.45446353608, -4253.1569901891935, -4263.930531016652, 3413.714875425682, 3425.091913353433, -101970.13342024486, -43187.615953399654, 0.0, 0.0, 0.0, 193.0, 1.0, 1.0, 1.0, 1.0, 0.0, 1.0, 257.0, 257.0, 1.0, 1.7653998270434902E9, 0.0, 2025-12-10 16:50:27.043
89.0, -4199.289286051904, -4211.873318180242, -4252.352327388803, -4263.170571705171, 3412.6643434362823, 3424.0190296195783, -101968.38998417735, -43185.87251733214, 0.0, 0.0, 0.0, 193.0, 1.0, 1.0, 1.0, 1.0, 0.0, 1.0, 257.0, 257.0, 1.0, 1.7653998270474992E9, 0.0, 2025-12-10 16:50:27.047
90.0, -4199.758672685465, -4212.230946091527, -4252.598196577811, -4263.349385660814, 3412.5078812250954, 3423.8178639194807, -101967.83119056598, -43185.26902023185, 0.0, 0.0, 0.0, 193.0, 1.0, 1.0, 1.0, 1.0, 0.0, 1.0, 257.0, 257.0, 1.0, 1.7653998270524905E9, 0.0, 2025-12-10 16:50:27.052
91.0, -4199.557506985368, -4212.0074286469735, -4252.464086111079, -4263.1929234496265, 3412.48552948064, 3423.862567408391, -101967.74178358815, -43185.380778954124, 0.0, 0.0, 0.0, 193.0, 1.0, 1.0, 1.0, 1.0, 0.0, 1.0, 257.0, 257.0, 1.0, 1.7653998270566833E9, 0.0, 2025-12-10 16:50:27.056
92.0, -4200.630390719222, -4213.16971935865, -4253.805190778397, -4264.623435094766, 3414.1395585703326, 3425.5836517314497, -101969.14994348884, -43187.191270255, 0.0, 0.0, 0.0, 193.0, 1.0, 1.0, 1.0, 1.0, 0.0, 1.0, 257.0, 257.0, 1.0, 1.7653998270595007E9, 0.0, 2025-12-10 16:50:27.059
93.0, -4199.713969196555, -4212.186242602616, -4252.620548322267, -4263.528199616457, 3412.641991691827, 3424.0413813640334, -101967.09358299895, -43185.22431674294, 0.0, 0.0, 0.0, 193.0, 1.0, 1.0, 1.0, 1.0, 0.0, 1.0, 257.0, 257.0, 1.0, 1.7653998270635023E9, 0.0, 2025-12-10 16:50:27.063
94.0, -4200.719797697044, -4213.102664125284, -4253.581673333844, -4264.466972883579, 3413.089026580933, 3424.443712764229, -101967.13828648785, -43185.22431674294, 0.0, 0.0, 0.0, 193.0, 1.0, 1.0, 1.0, 1.0, 0.0, 1.0, 257.0, 257.0, 1.0, 1.765399827067546E9, 0.0, 2025-12-10 16:50:27.067
95.0, -4201.770329686443, -4214.197899603593, -4254.788667534432, -4265.718670573076, 3414.407779503796, 3425.6954104537263, -101968.34528068845, -43186.69953187699, 0.0, 0.0, 0.0, 193.0, 1.0, 1.0, 1.0, 1.0, 0.0, 1.0, 257.0, 257.0, 1.0, 1.7653998270715373E9, 0.0, 2025-12-10 16:50:27.071
96.0, -4202.507937253468, -4215.1143211262615, -4255.928606501652, -4266.880961284753, 3415.905346382302, 3427.1482738433215, -101969.59697837794, -43188.30885747777, 0.0, 0.0, 0.0, 193.0, 1.0, 1.0, 1.0, 1.0, 0.0, 1.0, 257.0, 257.0, 1.0, 1.765399827075715E9, 0.0, 2025-12-10 16:50:27.075
97.0, -4201.300943052882, -4213.907326925674, -4254.453391367601, -4265.450449639613, 3414.4301312482517, 3425.762465687092, -101967.58532137696, -43186.18544175452, 0.0, 0.0, 0.0, 193.0, 1.0, 1.0, 1.0, 1.0, 0.0, 1.0, 257.0, 257.0, 1.0, 1.7653998270805242E9, 0.0, 2025-12-10 16:50:27.080
98.0, -4200.16100408566, -4212.588574002812, -4252.955824489096, -4264.019937994473, 3412.418474247274, 3423.8178639194807, -101965.0148707646, -43183.704398119975, 0.0, 0.0, 0.0, 193.0, 1.0, 1.0, 1.0, 1.0, 0.0, 1.0, 257.0, 257.0, 1.0, 1.7653998270845168E9, 0.0, 2025-12-10 16:50:27.084
99.0, -4200.675094208133, -4213.147367614194, -4253.6040250783, -4264.712842072588, 3413.089026580933, 3424.421361019774, -101965.4172021648, -43184.28554347582, 0.0, 0.0, 0.0, 193.0, 1.0, 1.0, 1.0, 1.0, 0.0, 1.0, 257.0, 257.0, 1.0, 1.7653998270875516E9, 0.0, 2025-12-10 16:50:27.087
100.0, -4200.8539081637755, -4213.482643781023, -4253.849894267309, -4265.048118239417, 3413.714875425682, 3425.069561608978, -101965.90894054282, -43185.13490976512, 0.0, 0.0, 0.0, 193.0, 1.0, 1.0, 1.0, 1.0, 0.0, 1.0, 257.0, 257.0, 1.0, 1.7653998270915215E9, 0.0, 2025-12-10 16:50:27.091
101.0, -4201.815033175353, -4214.577879259334, -4254.922778001163, -4266.031594995451, 3414.653648692805, 3425.8965761538243, -101966.40067892084, -43185.73840686541, 0.0, 0.0, 0.0, 193.0, 1.0, 1.0, 1.0, 1.0, 0.0, 1.0, 257.0, 257.0, 1.0, 1.765399827095538E9, 0.0, 2025-12-10 16:50:27.095
102.0, -4201.435053519614, -4214.0637891368615, -4254.185170434138, -4265.22693219506, 3413.357247514397, 3424.5331197420505, -101964.59018761995, -43183.81615684225, 0.0, 0.0, 0.0, 193.0, 1.0, 1.0, 1.0, 1.0, 0.0, 1.0, 257.0, 257.0, 1.0, 1.7653998270997667E9, 0.0, 2025-12-10 16:50:27.099
103.0, -4201.122129097239, -4213.773216458942, -4253.961652989585, -4264.824600794864, 3412.798453903014, 3424.1084365973998, -101963.94198703075, -43183.25736323087, 0.0, 0.0, 0.0, 193.0, 1.0, 1.0, 1.0, 1.0, 0.0, 1.0, 257.0, 257.0, 1.0, 1.7653998271035805E9, 0.0, 2025-12-10 16:50:27.103
104.0, -4201.882088408719, -4214.779044959431, -4255.258054167993, -4266.232760695549, 3414.452482992707, 3425.8518726649136, -101965.4619056537, -43185.0902062762, 0.0, 0.0, 0.0, 193.0, 1.0, 1.0, 1.0, 1.0, 0.0, 1.0, 257.0, 257.0, 1.0, 1.7653998271085508E9, 0.0, 2025-12-10 16:50:27.108
105.0, -4201.367998286248, -4214.1755478591385, -4254.609853578789, -4265.673967084166, 3414.094855081422, 3425.404837775807, -101964.6125393644, -43184.28554347582, 0.0, 0.0, 0.0, 193.0, 1.0, 1.0, 1.0, 1.0, 0.0, 1.0, 257.0, 257.0, 1.0, 1.765399827111549E9, 0.0, 2025-12-10 16:50:27.111
106.0, -4199.803376174375, -4212.342704813803, -4252.486437855535, -4263.528199616457, 3411.5244044690617, 3422.8790906523577, -101961.43859165175, -43181.044540529794, 0.0, 0.0, 0.0, 193.0, 1.0, 1.0, 1.0, 1.0, 0.0, 1.0, 257.0, 257.0, 1.0, 1.7653998271155849E9, 0.0, 2025-12-10 16:50:27.115
107.0, -4197.791719173399, -4210.241640835005, -4250.117152943272, -4261.069507726373, 3408.9092503677907, 3420.2415848066316, -101958.4658096392, -43178.13881375061, 0.0, 0.0, 0.0, 193.0, 1.0, 1.0, 1.0, 1.0, 0.0, 1.0, 257.0, 257.0, 1.0, 1.7653998271196065E9, 0.0, 2025-12-10 16:50:27.119
108.0, -4197.411739517658, -4209.92871641263, -4249.781876776442, -4260.89069377073, 3408.9092503677907, 3420.3533435289078, -101958.37640266138, -43178.42938642852, 0.0, 0.0, 0.0, 193.0, 1.0, 1.0, 1.0, 1.0, 0.0, 1.0, 257.0, 257.0, 1.0, 1.7653998271236064E9, 0.0, 2025-12-10 16:50:27.123
109.0, -4197.948181384585, -4210.599268746289, -4250.430077365646, -4261.6059495933, 3409.803320146003, 3421.1133028403883, -101958.91284452831, -43179.25640097337, 0.0, 0.0, 0.0, 193.0, 1.0, 1.0, 1.0, 1.0, 0.0, 1.0, 257.0, 257.0, 1.0, 1.7653998271277606E9, 0.0, 2025-12-10 16:50:27.127
110.0, -4199.602210474278, -4212.074483880339, -4251.838237266331, -4263.08116472735, 3410.9432591132236, 3422.1414830853323, -101959.38223116187, -43179.74813935139, 0.0, 0.0, 0.0, 193.0, 1.0, 1.0, 1.0, 1.0, 0.0, 1.0, 257.0, 257.0, 1.0, 1.765399827131597E9, 0.0, 2025-12-10 16:50:27.131
111.0, -4199.468100007546, -4211.895669924697, -4251.614719821778, -4262.790592049431, 3410.2056515461986, 3421.5603377294947, -101958.35405091693, -43178.78701433981, 0.0, 0.0, 0.0, 193.0, 1.0, 1.0, 1.0, 1.0, 0.0, 1.0, 257.0, 257.0, 1.0, 1.7653998271366243E9, 0.0, 2025-12-10 16:50:27.136
112.0, -4199.4457482630905, -4211.918021669152, -4251.905292499697, -4263.125868216261, 3410.67503817976, 3422.0744278519664, -101958.71167882821, -43179.43521492901, 0.0, 0.0, 0.0, 193.0, 1.0, 1.0, 1.0, 1.0, 0.0, 1.0, 257.0, 257.0, 1.0, 1.7653998271396956E9, 0.0, 2025-12-10 16:50:27.139
113.0, -4200.563335485856, -4213.2367745920155, -4253.313452400381, -4264.690490328132, 3412.6196399473715, 3423.840215663936, -101960.18689396227, -43181.178650996524, 0.0, 0.0, 0.0, 193.0, 1.0, 1.0, 1.0, 1.0, 0.0, 1.0, 257.0, 257.0, 1.0, 1.7653998271426475E9, 0.0, 2025-12-10 16:50:27.142
114.0, -4200.540983741401, -4213.192071103104, -4253.134638444739, -4264.466972883579, 3412.060846335989, 3423.3037737970085, -101959.1140102284, -43180.03871202931, 0.0, 0.0, 0.0, 193.0, 1.0, 1.0, 1.0, 1.0, 0.0, 1.0, 257.0, 257.0, 1.0, 1.7653998271476493E9, 0.0, 2025-12-10 16:50:27.147
115.0, -4201.390350030702, -4213.952030414585, -4253.849894267309, -4265.0704699838725, 3412.284363780542, 3423.5272912415617, -101958.93519627277, -43179.88224981812, 0.0, 0.0, 0.0, 193.0, 1.0, 1.0, 1.0, 1.0, 0.0, 1.0, 257.0, 257.0, 1.0, 1.7653998271516228E9, 0.0, 2025-12-10 16:50:27.151
116.0, -4201.524460497434, -4214.197899603593, -4254.051059967406, -4265.405746150702, 3412.7537504141037, 3423.9743261306676, -101959.1140102284, -43180.37398819614, 0.0, 0.0, 0.0, 193.0, 1.0, 1.0, 1.0, 1.0, 0.0, 1.0, 257.0, 257.0, 1.0, 1.7653998271556256E9, 0.0, 2025-12-10 16:50:27.155
117.0, -4201.747977941987, -4214.399065303692, -4254.453391367601, -4265.741022317532, 3413.379599258852, 3424.6001749754164, -101959.53869337305, -43181.15629925207, 0.0, 0.0, 0.0, 193.0, 1.0, 1.0, 1.0, 1.0, 0.0, 1.0, 257.0, 257.0, 1.0, 1.765399827159846E9, 0.0, 2025-12-10 16:50:27.159
118.0, -4202.373826786737, -4214.957858915074, -4255.012184978984, -4266.232760695549, 3413.6254684478604, 3424.9578028867013, -101959.38223116187, -43180.95513355197, 0.0, 0.0, 0.0, 193.0, 1.0, 1.0, 1.0, 1.0, 0.0, 1.0, 257.0, 257.0, 1.0, 1.7653998271648896E9, 0.0, 2025-12-10 16:50:27.164
119.0, -4201.189184330605, -4213.661457736666, -4253.469914611568, -4264.623435094766, 3411.457349235696, 3422.812035418992, -101956.83413229397, -43178.38468293961, 0.0, 0.0, 0.0, 193.0, 1.0, 1.0, 1.0, 1.0, 0.0, 1.0, 257.0, 257.0, 1.0, 1.7653998271676824E9, 0.0, 2025-12-10 16:50:27.167
120.0, -4202.284419808915, -4214.868451937253, -4254.833371023342, -4266.076298484361, 3412.8208056474696, 3424.1978435752208, -101958.01877475009, -43179.83754632921, 0.0, 0.0, 0.0, 193.0, 1.0, 1.0, 1.0, 1.0, 0.0, 1.0, 257.0, 257.0, 1.0, 1.76539982717068E9, 0.0, 2025-12-10 16:50:27.170
121.0, -4202.887916909208, -4215.673114737644, -4255.7944960349205, -4267.171533962672, 3414.385427759341, 3425.6507069648155, -101959.29282418404, -43181.40216844108, 0.0, 0.0, 0.0, 193.0, 1.0, 1.0, 1.0, 1.0, 0.0, 1.0, 257.0, 257.0, 1.0, 1.7653998271756408E9, 0.0, 2025-12-10 16:50:27.175
122.0, -4201.390350030702, -4213.952030414585, -4253.894597756219, -4265.2492839395145, 3412.418474247274, 3423.549642986017, -101956.81178054951, -43178.89877306209, 0.0, 0.0, 0.0, 193.0, 1.0, 1.0, 1.0, 1.0, 0.0, 1.0, 257.0, 257.0, 1.0, 1.7653998271796832E9, 0.0, 2025-12-10 16:50:27.179
123.0, -4200.87625990823, -4213.348533314292, -4253.067583211373, -4264.332862416847, 3411.0550178355, 3422.1414830853323, -101954.88953052636, -43176.93181955002, 0.0, 0.0, 0.0, 193.0, 1.0, 1.0, 1.0, 1.0, 0.0, 1.0, 257.0, 257.0, 1.0, 1.7653998271836882E9, 0.0, 2025-12-10 16:50:27.183
124.0, -4200.0939488522945, -4212.655629236177, -4252.084106455339, -4263.572903105367, 3410.071541079467, 3421.24741330712, -101953.77194330358, -43175.881287560616, 0.0, 0.0, 0.0, 193.0, 1.0, 1.0, 1.0, 1.0, 0.0, 1.0, 257.0, 257.0, 1.0, 1.7653998271876893E9, 0.0, 2025-12-10 16:50:27.187
125.0, -4201.479757008524, -4214.108492625773, -4253.738135545032, -4265.316339172881, 3412.083198080444, 3423.2814220525534, -101955.62713809338, -43178.16116549506, 0.0, 0.0, 0.0, 193.0, 1.0, 1.0, 1.0, 1.0, 0.0, 1.0, 257.0, 257.0, 1.0, 1.7653998271917355E9, 0.0, 2025-12-10 16:50:27.191
126.0, -4203.178489587127, -4215.896632182197, -4255.593330334822, -4267.171533962672, 3413.9160411257794, 3425.1366168423438, -101956.96824276069, -43179.725787606934, 0.0, 0.0, 0.0, 193.0, 1.0, 1.0, 1.0, 1.0, 0.0, 1.0, 257.0, 257.0, 1.0, 1.765399827195748E9, 0.0, 2025-12-10 16:50:27.195
127.0, -4201.949143642085, -4214.3543618147805, -4254.006356478495, -4265.383394406247, 3411.7255701691593, 3423.0132011190894, -101954.35308865942, -43176.998874783385, 0.0, 0.0, 0.0, 193.0, 1.0, 1.0, 1.0, 1.0, 0.0, 1.0, 257.0, 257.0, 1.0, 1.7653998271987047E9, 0.0, 2025-12-10 16:50:27.198
128.0, -4200.652742463678, -4213.057960636373, -4252.553493088901, -4263.9528827611075, 3410.093892823922, 3421.4038755183074, -101952.49789386963, -43175.23308697141, 0.0, 0.0, 0.0, 193.0, 1.0, 1.0, 1.0, 1.0, 0.0, 1.0, 257.0, 257.0, 1.0, 1.7653998272036948E9, 0.0, 2025-12-10 16:50:27.203
129.0, -4200.518631996945, -4213.16971935865, -4252.732307044543, -4264.265807183481, 3410.7867969020367, 3422.029724363056, -101952.83317003647, -43175.99304628289, 0.0, 0.0, 0.0, 193.0, 1.0, 1.0, 1.0, 1.0, 0.0, 1.0, 257.0, 257.0, 1.0, 1.7653998272077296E9, 0.0, 2025-12-10 16:50:27.207
130.0, -4200.250411063482, -4212.834443191819, -4252.464086111079, -4263.975234505562, 3410.6973899242153, 3421.96266912969, -101952.3637834029, -43175.72482534943, 0.0, 0.0, 0.0, 193.0, 1.0, 1.0, 1.0, 1.0, 0.0, 1.0, 257.0, 257.0, 1.0, 1.7653998272117276E9, 0.0, 2025-12-10 16:50:27.211
131.0, -4199.758672685465, -4212.163890858161, -4251.614719821778, -4262.969406005073, 3409.2892300235308, 3420.554509229006, -101950.4638851242, -43173.713168348455, 0.0, 0.0, 0.0, 193.0, 1.0, 1.0, 1.0, 1.0, 0.0, 1.0, 257.0, 257.0, 1.0, 1.7653998272157319E9, 0.0, 2025-12-10 16:50:27.215
132.0, -4197.5905534733, -4209.9510681570855, -4249.111324442783, -4260.354251903803, 3406.4952619666174, 3417.6934859387266, -101947.28993741155, -43170.65097935808, 0.0, 0.0, 0.0, 193.0, 1.0, 1.0, 1.0, 1.0, 0.0, 1.0, 257.0, 257.0, 1.0, 1.7653998272207575E9, 0.0, 2025-12-10 16:50:27.220
133.0, -4197.367036028747, -4209.772254201443, -4248.9325104871405, -4260.287196670437, 3406.584668944439, 3417.8275964054583, -101947.44639962273, -43171.07566250273, 0.0, 0.0, 0.0, 193.0, 1.0, 1.0, 1.0, 1.0, 0.0, 1.0, 257.0, 257.0, 1.0, 1.7653998272237537E9, 0.0, 2025-12-10 16:50:27.223
134.0, -4198.238754062504, -4210.711027468566, -4249.915987243175, -4261.516542615479, 3407.814014889481, 3419.191052817232, -101948.40752463431, -43172.1932497255, 0.0, 0.0, 0.0, 193.0, 1.0, 1.0, 1.0, 1.0, 0.0, 1.0, 257.0, 257.0, 1.0, 1.765399827226776E9, 0.0, 2025-12-10 16:50:27.226
135.0, -4198.68578895161, -4211.091007124306, -4250.1618564321825, -4261.673004826665, 3407.7246079116594, 3419.0792940949555, -101947.66991706728, -43171.43329041401, 0.0, 0.0, 0.0, 193.0, 1.0, 1.0, 1.0, 1.0, 0.0, 1.0, 257.0, 257.0, 1.0, 1.7653998272317781E9, 0.0, 2025-12-10 16:50:27.231
136.0, -4198.68578895161, -4211.046303635395, -4250.005394220995, -4261.404783893202, 3407.255221278098, 3418.6546109503047, -101946.73114380016, -43170.561572380255, 0.0, 0.0, 0.0, 193.0, 1.0, 1.0, 1.0, 1.0, 0.0, 1.0, 257.0, 257.0, 1.0, 1.765399827235787E9, 0.0, 2025-12-10 16:50:27.235
137.0, -4199.892783152197, -4212.253297835982, -4251.547664588412, -4263.058812982895, 3409.155119556799, 3420.53215748455, -101948.38517288986, -43172.48382240341, 0.0, 0.0, 0.0, 193.0, 1.0, 1.0, 1.0, 1.0, 0.0, 1.0, 257.0, 257.0, 1.0, 1.7653998272397757E9, 0.0, 2025-12-10 16:50:27.239
138.0, -4201.367998286248, -4213.8849751812195, -4253.402859378202, -4265.115173472783, 3411.546756213517, 3422.812035418992, -101950.41918163528, -43174.78605208231, 0.0, 0.0, 0.0, 193.0, 1.0, 1.0, 1.0, 1.0, 0.0, 1.0, 257.0, 257.0, 1.0, 1.7653998272437873E9, 0.0, 2025-12-10 16:50:27.243
139.0, -4200.317466296848, -4212.722684469543, -4252.106458199794, -4263.863475783286, 3409.8480236349137, 3421.1133028403883, -101948.29576591203, -43172.595581125686, 0.0, 0.0, 0.0, 193.0, 1.0, 1.0, 1.0, 1.0, 0.0, 1.0, 257.0, 257.0, 1.0, 1.7653998272477791E9, 0.0, 2025-12-10 16:50:27.247
140.0, -4199.579858729823, -4211.78391120242, -4251.1006296993055, -4262.7235368160655, 3408.2834015230424, 3419.615735961883, -101946.32881239997, -43170.65097935808, 0.0, 0.0, 0.0, 193.0, 1.0, 1.0, 1.0, 1.0, 0.0, 1.0, 257.0, 257.0, 1.0, 1.7653998272518036E9, 0.0, 2025-12-10 16:50:27.251
141.0, -4197.814070917853, -4210.152233857183, -4249.2230831650595, -4260.868342026275, 3406.4282067332515, 3417.872299894369, -101944.38421063236, -43168.99695026838, 0.0, 0.0, 0.0, 193.0, 1.0, 1.0, 1.0, 1.0, 0.0, 1.0, 257.0, 257.0, 1.0, 1.765399827254794E9, 0.0, 2025-12-10 16:50:27.254
142.0, -4198.909306396164, -4211.381579802225, -4250.653594810199, -4262.388260649235, 3408.2834015230424, 3419.6827911952487, -101945.90412925532, -43170.87449680263, 0.0, 0.0, 0.0, 193.0, 1.0, 1.0, 1.0, 1.0, 0.0, 1.0, 257.0, 257.0, 1.0, 1.7653998272598164E9, 0.0, 2025-12-10 16:50:27.259
143.0, -4197.747015684487, -4210.174585601639, -4249.2230831650595, -4260.89069377073, 3406.6964276667154, 3418.0511138500115, -101943.75836178761, -43168.68402584601, 0.0, 0.0, 0.0, 193.0, 1.0, 1.0, 1.0, 1.0, 0.0, 1.0, 257.0, 257.0, 1.0, 1.7653998272638335E9, 0.0, 2025-12-10 16:50:27.263
144.0, -4197.724663940032, -4210.152233857183, -4249.133676187239, -4260.622472837266, 3406.092930566422, 3417.4699684941734, -101942.64077456485, -43167.61114211215, 0.0, 0.0, 0.0, 193.0, 1.0, 1.0, 1.0, 1.0, 0.0, 1.0, 257.0, 257.0, 1.0, 1.7653998272678235E9, 0.0, 2025-12-10 16:50:27.267
145.0, -4199.244582562993, -4211.649800735689, -4250.944167488118, -4262.522371115968, 3408.0375323340336, 3419.3922185173296, -101944.29480365454, -43169.511040390855, 0.0, 0.0, 0.0, 193.0, 1.0, 1.0, 1.0, 1.0, 0.0, 1.0, 257.0, 257.0, 1.0, 1.7653998272720292E9, 0.0, 2025-12-10 16:50:27.272
146.0, -4198.752844184976, -4211.202765846582, -4250.720650043565, -4262.410612393691, 3408.14929105631, 3419.548680728517, -101944.29480365454, -43169.801613068776, 0.0, 0.0, 0.0, 193.0, 1.0, 1.0, 1.0, 1.0, 0.0, 1.0, 257.0, 257.0, 1.0, 1.7653998272748497E9, 0.0, 2025-12-10 16:50:27.274
147.0, -4198.238754062504, -4210.576917001834, -4250.117152943272, -4261.7847635489425, 3407.4340352337404, 3418.8557766504023, -101943.1101611984, -43168.6393223571, 0.0, 0.0, 0.0, 193.0, 1.0, 1.0, 1.0, 1.0, 0.0, 1.0, 257.0, 257.0, 1.0, 1.765399827278831E9, 0.0, 2025-12-10 16:50:27.278
148.0, -4198.417568018147, -4210.6439722352, -4250.005394220995, -4261.628301337755, 3406.830538133447, 3418.2075760611983, -101941.94787048672, -43167.49938338988, 0.0, 0.0, 0.0, 193.0, 1.0, 1.0, 1.0, 1.0, 0.0, 1.0, 257.0, 257.0, 1.0, 1.765399827282944E9, 0.0, 2025-12-10 16:50:27.282
149.0, -4197.076463350829, -4209.21346059006, -4248.440772109124, -4259.996623992518, 3405.265916021576, 3416.575898715961, -101940.09267569694, -43165.800650811274, 0.0, 0.0, 0.0, 193.0, 1.0, 1.0, 1.0, 1.0, 0.0, 1.0, 257.0, 257.0, 1.0, 1.7653998272868717E9, 0.0, 2025-12-10 16:50:27.286
150.0, -4196.9200011396415, -4209.101701867784, -4248.485475598035, -4260.220141437071, 3405.6905991662265, 3417.022933605067, -101940.3608966304, -43166.40414791157, 0.0, 0.0, 0.0, 193.0, 1.0, 1.0, 1.0, 1.0, 0.0, 1.0, 257.0, 257.0, 1.0, 1.765399827291855E9, 0.0, 2025-12-10 16:50:27.291
151.0, -4197.143518584195, -4209.302867567882, -4248.686641298133, -4260.51071411499, 3406.0035235886007, 3417.268802794076, -101940.27148965259, -43166.381796167116, 0.0, 0.0, 0.0, 193.0, 1.0, 1.0, 1.0, 1.0, 0.0, 1.0, 257.0, 257.0, 1.0, 1.765399827295861E9, 0.0, 2025-12-10 16:50:27.295
152.0, -4194.707178438566, -4206.8441756777975, -4245.847969752308, -4257.537932102434, 3402.6954654092156, 3414.0725033369667, -101936.38228611735, -43162.47024088744, 0.0, 0.0, 0.0, 193.0, 1.0, 1.0, 1.0, 1.0, 0.0, 1.0, 257.0, 257.0, 1.0, 1.7653998273000333E9, 0.0, 2025-12-10 16:50:27.300
153.0, -4195.578896472322, -4207.805300689376, -4246.719687786065, -4258.476705369557, 3403.589535187428, 3414.988924859634, -101936.94107972874, -43163.07373798773, 0.0, 0.0, 0.0, 193.0, 1.0, 1.0, 1.0, 1.0, 0.0, 1.0, 257.0, 257.0, 1.0, 1.765399827302925E9, 0.0, 2025-12-10 16:50:27.302
154.0, -4197.702312195577, -4209.995771645996, -4249.334841887337, -4261.091859470828, 3406.67407592226, 3418.0064103611007, -101939.7573995301, -43166.27003744484, 0.0, 0.0, 0.0, 193.0, 1.0, 1.0, 1.0, 1.0, 0.0, 1.0, 257.0, 257.0, 1.0, 1.7653998273068895E9, 0.0, 2025-12-10 16:50:27.306
155.0, -4198.417568018147, -4210.68867572411, -4250.27361515446, -4262.0753362268615, 3407.76931140057, 3419.123997583866, -101940.47265535267, -43167.23116245642, 0.0, 0.0, 0.0, 193.0, 1.0, 1.0, 1.0, 1.0, 0.0, 1.0, 257.0, 257.0, 1.0, 1.7653998273110049E9, 0.0, 2025-12-10 16:50:27.311
156.0, -4196.852945906276, -4209.146405356694, -4248.440772109124, -4260.108382714794, 3405.4670817216734, 3416.8217679049694, -101937.52222508458, -43164.25838044386, 0.0, 0.0, 0.0, 193.0, 1.0, 1.0, 1.0, 1.0, 0.0, 1.0, 257.0, 257.0, 1.0, 1.7653998273149273E9, 0.0, 2025-12-10 16:50:27.314
157.0, -4195.109509838761, -4207.291210566904, -4246.36205987478, -4257.94026350263, 3402.941334598224, 3414.407779503796, -101934.81766400549, -43161.57617110922, 0.0, 0.0, 0.0, 193.0, 1.0, 1.0, 1.0, 1.0, 0.0, 1.0, 257.0, 257.0, 1.0, 1.7653998273199089E9, 0.0, 2025-12-10 16:50:27.319
