%OpenBCI Raw EXG Data
%Number of channels = 8
%Sample Rate = 250 Hz
%Board = OpenBCI_GUI$BoardCytonSerial
Sample Index, EXG Channel 0, EXG Channel 1, EXG Channel 2, EXG Channel 3, EXG Channel 4, EXG Channel 5, EXG Channel 6, EXG Channel 7, Accel Channel 0, Accel Channel 1, Accel Channel 2, Not Used, Digital Channel 0 (D11), Digital Channel 1 (D12), Digital Channel 2 (D13), Digital Channel 3 (D17), Not Used, Digital Channel 4 (D18), Analog Channel 0, Analog Channel 1, Analog Channel 2, Timestamp, Marker Channel, Timestamp (Formatted)
0.0, -128432.318977394, -129594.94496523679, -128623.44874423133, -128696.96363174483, -129072.3164763828, -128563.59077258, -128448.12166072389, -128696.56130034463, 0.0, 0.0, 0.0, 193.0, 0.0, 0.0, 0.0, 0.0, 0.0, 0.0, 0.0, 0.0, 0.0, 1.7641886645824137E9, 0.0, 2025-11-26 16:24:24.582
1.0, -128430.15085818182, -129510.07539153998, -128586.32249669106, -128701.65749808044, -129033.31268230829, -128567.81525228206, -128445.93118976727, -128688.44761710735, 0.0, 0.0, 0.0, 193.0, 0.0, 0.0, 0.0, 0.0, 0.0, 0.0, 0.0, 0.0, 0.0, 1.76418866458644E9, 0.0, 2025-11-26 16:24:24.586
2.0, -128427.53570408055, -129438.77332672756, -128571.27977267264, -128699.86935852401, -129008.43519072953, -128568.46345287126, -128445.10417522243, -128684.44665484986, 0.0, 0.0, 0.0, 193.0, 0.0, 0.0, 0.0, 0.0, 0.0, 0.0, 0.0, 0.0, 0.0, 1.7641886645894551E9, 0.0, 2025-11-26 16:24:24.589
3.0, -128429.815582015, -129368.29827645997, -128598.0571625301, -128701.61279459154, -128984.943507307, -128579.01347625417, -128447.02642524558, -128687.62060256251, 0.0, 0.0, 0.0, 193.0, 0.0, 0.0, 0.0, 0.0, 0.0, 0.0, 0.0, 0.0, 0.0, 1.7641886645934343E9, 0.0, 2025-11-26 16:24:24.593
4.0, -128433.10128844992, -129289.32956329937, -128600.02411604216, -128699.69054456838, -128951.8852772576, -128580.22047045476, -128450.20037295824, -128693.74498054326, 0.0, 0.0, 0.0, 193.0, 0.0, 0.0, 0.0, 0.0, 0.0, 0.0, 0.0, 0.0, 0.0, 1.764188664598434E9, 0.0, 2025-11-26 16:24:24.598
5.0, -128434.37533788387, -129207.11984719275, -128603.26511898817, -128705.0326114932, -128915.40723030655, -128577.09122623102, -128450.75916656962, -128693.9237944989, 0.0, 0.0, 0.0, 193.0, 0.0, 0.0, 0.0, 0.0, 0.0, 0.0, 0.0, 0.0, 0.0, 1.7641886646014884E9, 0.0, 2025-11-26 16:24:24.601
6.0, -128432.1625151828, -129133.62731142371, -128589.8987758039, -128710.01705050672, -128888.40632300453, -128583.01443851167, -128451.13914622535, -128688.60407931854, 0.0, 0.0, 0.0, 193.0, 0.0, 0.0, 0.0, 0.0, 0.0, 0.0, 0.0, 0.0, 0.0, 1.7641886646064737E9, 0.0, 2025-11-26 16:24:24.606
7.0, -128428.07214594749, -129035.65961547609, -128601.52168292066, -128713.01218426373, -128865.49578493784, -128593.40799968339, -128453.82135556, -128690.01223921923, 0.0, 0.0, 0.0, 193.0, 0.0, 0.0, 0.0, 0.0, 0.0, 0.0, 0.0, 0.0, 0.0, 1.7641886646104836E9, 0.0, 2025-11-26 16:24:24.610
8.0, -128439.53859085306, -128770.76909193625, -128627.06972683308, -128710.2852714402, -128824.14505769552, -128585.69664784631, -128458.5152218956, -128705.59140510457, 0.0, 0.0, 0.0, 193.0, 0.0, 0.0, 0.0, 0.0, 0.0, 0.0, 0.0, 0.0, 0.0, 1.764188664613488E9, 0.0, 2025-11-26 16:24:24.613
9.0, -128441.37143389838, -128759.45910924187, -128643.94529389683, -128706.50782662725, -128700.33874515758, -128569.06694997156, -128456.52591663909, -128704.16089345944, 0.0, 0.0, 0.0, 193.0, 0.0, 0.0, 0.0, 0.0, 0.0, 0.0, 0.0, 0.0, 0.0, 1.764188664617463E9, 0.0, 2025-11-26 16:24:24.617
10.0, -128443.87482927738, -128886.14879681455, -128668.19693663085, -128704.40676264845, -128492.15459730085, -128598.14656950791, -128457.97878002869, -128708.36302141703, 0.0, 0.0, 0.0, 193.0, 0.0, 0.0, 0.0, 0.0, 0.0, 0.0, 0.0, 0.0, 0.0, 1.7641886646246033E9, 0.0, 2025-11-26 16:24:24.624
11.0, -128446.57939035648, -129001.9978883264, -128654.54002076865, -128703.60209984805, -128596.17961599585, -128605.81321785608, -128456.34710268344, -128708.96651851732, 0.0, 0.0, 0.0, 193.0, 0.0, 0.0, 0.0, 0.0, 0.0, 0.0, 0.0, 0.0, 0.0, 1.7641886646285267E9, 0.0, 2025-11-26 16:24:24.628
12.0, -128444.14305021084, -129113.3766309472, -128681.4738728373, -128700.6293178355, -128761.26960054274, -128619.24661627373, -128455.29657069404, -128705.7255155713, 0.0, 0.0, 0.0, 193.0, 0.0, 0.0, 0.0, 0.0, 0.0, 0.0, 0.0, 0.0, 0.0, 1.7641886646315331E9, 0.0, 2025-11-26 16:24:24.631
13.0, -128440.67852982027, -129210.60671932778, -128679.55162281415, -128696.24837592225, -128913.26146283884, -128622.107639564, -128452.70376833723, -128704.78674230419, 0.0, 0.0, 0.0, 193.0, 0.0, 0.0, 0.0, 0.0, 0.0, 0.0, 0.0, 0.0, 0.0, 1.764188664634546E9, 0.0, 2025-11-26 16:24:24.634
14.0, -128433.66008206131, -129373.72975036262, -128641.2183810733, -128695.39900963295, -129196.97215521005, -128595.106732262, -128446.57939035648, -128695.95780324434, 0.0, 0.0, 0.0, 193.0, 0.0, 0.0, 0.0, 0.0, 0.0, 0.0, 0.0, 0.0, 0.0, 1.764188664638541E9, 0.0, 2025-11-26 16:24:24.638
15.0, -128426.17224766879, -129685.08955062504, -128589.96583103728, -128694.95197474385, -129457.86171649239, -128553.39837710839, -128439.9185705088, -128683.32906762708, 0.0, 0.0, 0.0, 193.0, 0.0, 0.0, 0.0, 0.0, 0.0, 0.0, 0.0, 0.0, 0.0, 1.7641886646415117E9, 0.0, 2025-11-26 16:24:24.641
16.0, -128425.92637847978, -129696.84656820854, -128594.3020694616, -128696.78481778919, -129446.68584426474, -128548.99508345069, -128441.52789610958, -128684.15608217193, 0.0, 0.0, 0.0, 193.0, 0.0, 0.0, 0.0, 0.0, 0.0, 0.0, 0.0, 0.0, 0.0, 1.764188664645671E9, 0.0, 2025-11-26 16:24:24.645
17.0, -128428.72034653669, -129610.47942763322, -128604.94149982232, -128697.34361140056, -129405.22335830014, -128562.7414062907, -128445.48415487817, -128690.03459096368, 0.0, 0.0, 0.0, 193.0, 0.0, 0.0, 0.0, 0.0, 0.0, 0.0, 0.0, 0.0, 0.0, 1.764188664649634E9, 0.0, 2025-11-26 16:24:24.649
18.0, -128425.52404707958, -129531.68952842827, -128578.67820008734, -128697.36596314503, -129372.03101778401, -128560.10390044498, -128440.9691024982, -128680.37863735898, 0.0, 0.0, 0.0, 193.0, 0.0, 0.0, 0.0, 0.0, 0.0, 0.0, 0.0, 0.0, 0.0, 1.7641886646525664E9, 0.0, 2025-11-26 16:24:24.652
19.0, -128428.85445700341, -129461.99678921662, -128580.08635998802, -128699.9811172463, -129349.65692158425, -128568.73167380472, -128443.09251822146, -128683.08319843808, 0.0, 0.0, 0.0, 193.0, 0.0, 0.0, 0.0, 0.0, 0.0, 0.0, 0.0, 0.0, 0.0, 1.7641886646565733E9, 0.0, 2025-11-26 16:24:24.656
20.0, -128432.69895704972, -129389.15245403678, -128586.0989792465, -128701.0316492357, -129324.01947069401, -128578.07470298705, -128444.59008509996, -128687.55354732914, 0.0, 0.0, 0.0, 193.0, 0.0, 0.0, 0.0, 0.0, 0.0, 0.0, 0.0, 0.0, 0.0, 1.7641886646605384E9, 0.0, 2025-11-26 16:24:24.660
21.0, -128432.74366053865, -129308.4179530642, -128603.08630503254, -128699.15410270145, -129288.770769688, -128577.42650239785, -128447.04877699004, -128690.88395725298, 0.0, 0.0, 0.0, 193.0, 0.0, 0.0, 0.0, 0.0, 0.0, 0.0, 0.0, 0.0, 0.0, 1.7641886646655564E9, 0.0, 2025-11-26 16:24:24.665
22.0, -128432.87777100537, -129226.99054801352, -128602.5051596767, -128700.53991085768, -129252.44918494811, -128574.99016225222, -128448.70280607973, -128690.41457061942, 0.0, 0.0, 0.0, 193.0, 0.0, 0.0, 0.0, 0.0, 0.0, 0.0, 0.0, 0.0, 0.0, 1.7641886646696458E9, 0.0, 2025-11-26 16:24:24.669
23.0, -128431.84959076042, -129154.4367855116, -128587.95417403629, -128705.2337771933, -129225.51533287947, -128581.91920303337, -128449.4180619023, -128690.48162585279, 0.0, 0.0, 0.0, 193.0, 0.0, 0.0, 0.0, 0.0, 0.0, 0.0, 0.0, 0.0, 0.0, 1.7641886646736493E9, 0.0, 2025-11-26 16:24:24.673
24.0, -128428.92151223679, -129060.26888612138, -128596.2019677403, -128705.97138476031, -129199.83317850032, -128590.3011072041, -128452.45789914823, -128696.20367243334, 0.0, 0.0, 0.0, 193.0, 0.0, 0.0, 0.0, 0.0, 0.0, 0.0, 0.0, 0.0, 0.0, 1.7641886646767633E9, 0.0, 2025-11-26 16:24:24.676
25.0, -128437.63869257436, -128794.5513480367, -128630.98128211276, -128706.1278469715, -129155.95670413456, -128580.68985708832, -128455.27421894959, -128702.43980913638, 0.0, 0.0, 0.0, 193.0, 0.0, 0.0, 0.0, 0.0, 0.0, 0.0, 0.0, 0.0, 0.0, 1.764188664680648E9, 0.0, 2025-11-26 16:24:24.680
26.0, -128439.76210829761, -128762.47659474333, -128634.22228505879, -128707.31248942764, -129102.04429650835, -128570.2515924277, -128454.55896312703, -128699.80230329065, 0.0, 0.0, 0.0, 193.0, 0.0, 0.0, 0.0, 0.0, 0.0, 0.0, 0.0, 0.0, 0.0, 1.764188664684664E9, 0.0, 2025-11-26 16:24:24.684
27.0, -128440.9691024982, -128907.69587846946, -128623.13581980894, -128706.57488186061, -129054.68095000756, -128563.90369700239, -128452.21202995922, -128699.377620146, 0.0, 0.0, 0.0, 193.0, 0.0, 0.0, 0.0, 0.0, 0.0, 0.0, 0.0, 0.0, 0.0, 1.764188664688661E9, 0.0, 2025-11-26 16:24:24.688
28.0, -128437.99632048563, -129062.14643265563, -128616.00561332771, -128701.881015525, -129012.57026345376, -128561.33324639003, -128454.00016951564, -128700.8304835356, 0.0, 0.0, 0.0, 193.0, 0.0, 0.0, 0.0, 0.0, 0.0, 0.0, 0.0, 0.0, 0.0, 1.7641886646926444E9, 0.0, 2025-11-26 16:24:24.692
29.0, -128440.29855016453, -129205.95755648108, -128646.69455846483, -128701.25516668025, -128960.26718142834, -128586.88129030244, -128455.00599801613, -128705.77021906021, 0.0, 0.0, 0.0, 193.0, 0.0, 0.0, 0.0, 0.0, 0.0, 0.0, 0.0, 0.0, 0.0, 1.7641886646986918E9, 0.0, 2025-11-26 16:24:24.698
30.0, -128442.55607635452, -129409.24667230209, -128640.74899443972, -128706.30666092715, -128900.65507896604, -128584.4002466679, -128453.77665207109, -128703.26682368122, 0.0, 0.0, 0.0, 193.0, 0.0, 0.0, 0.0, 0.0, 0.0, 0.0, 0.0, 0.0, 0.0, 1.764188664701633E9, 0.0, 2025-11-26 16:24:24.701
31.0, -128435.38116638437, -129712.24692013823, -128595.71022936229, -128705.12201847101, -128860.17606975748, -128560.46152835626, -128449.82039330249, -128693.02972472069, 0.0, 0.0, 0.0, 193.0, 0.0, 0.0, 0.0, 0.0, 0.0, 0.0, 0.0, 0.0, 0.0, 1.7641886647046497E9, 0.0, 2025-11-26 16:24:24.704
32.0, -128439.49388736415, -129706.3684113465, -128599.71119161979, -128702.17158820291, -128833.7563078113, -128564.48484235822, -128454.82718406049, -128694.63905032148, 0.0, 0.0, 0.0, 193.0, 0.0, 0.0, 0.0, 0.0, 0.0, 0.0, 0.0, 0.0, 0.0, 1.7641886647096615E9, 0.0, 2025-11-26 16:24:24.709
33.0, -128441.93022750977, -129625.2986342071, -128622.15234305292, -128706.46312313834, -128798.48525506083, -128564.03780746911, -128457.4199864173, -128697.61183233403, 0.0, 0.0, 0.0, 193.0, 0.0, 0.0, 0.0, 0.0, 0.0, 0.0, 0.0, 0.0, 0.0, 1.7641886647136526E9, 0.0, 2025-11-26 16:24:24.713
34.0, -128441.23732343166, -129538.28329304258, -128624.4545727318, -128710.24056795127, -128648.68386372137, -128563.03197896863, -128454.98364627168, -128698.90823351244, 0.0, 0.0, 0.0, 193.0, 0.0, 0.0, 0.0, 0.0, 0.0, 0.0, 0.0, 0.0, 0.0, 1.7641886647176487E9, 0.0, 2025-11-26 16:24:24.717
35.0, -128441.37143389838, -129446.03764367553, -128620.69947966332, -128710.59819586256, -128521.8377139375, -128569.4022261384, -128455.1177567384, -128704.51852137072, 0.0, 0.0, 0.0, 193.0, 0.0, 0.0, 0.0, 0.0, 0.0, 0.0, 0.0, 0.0, 0.0, 1.764188664720641E9, 0.0, 2025-11-26 16:24:24.720
36.0, -128443.87482927738, -129349.6792733287, -128640.39136652845, -128709.70412608435, -128691.84508226457, -128585.13785423493, -128458.11289049541, -128705.34553591556, 0.0, 0.0, 0.0, 193.0, 0.0, 0.0, 0.0, 0.0, 0.0, 0.0, 0.0, 0.0, 0.0, 1.7641886647246628E9, 0.0, 2025-11-26 16:24:24.724
37.0, -128445.32769266698, -129243.26261797699, -128657.62456150349, -128709.86058829555, -128879.8232531337, -128600.02411604216, -128458.24700096215, -128710.66525109592, 0.0, 0.0, 0.0, 193.0, 0.0, 0.0, 0.0, 0.0, 0.0, 0.0, 0.0, 0.0, 0.0, 1.7641886647286766E9, 0.0, 2025-11-26 16:24:24.728
38.0, -128436.3646431404, -129134.38727073518, -128636.90449439341, -128704.92085277091, -129169.1889368521, -128591.48574966023, -128456.05653000553, -128707.42424814991, 0.0, 0.0, 0.0, 193.0, 0.0, 0.0, 0.0, 0.0, 0.0, 0.0, 0.0, 0.0, 0.0, 1.7641886647326949E9, 0.0, 2025-11-26 16:24:24.732
39.0, -128430.28496864856, -128976.85217581419, -128601.47697943175, -128703.22212019231, -129452.94433271223, -128564.28367665812, -128453.17315497079, -128697.29890791165, 0.0, 0.0, 0.0, 193.0, 0.0, 0.0, 0.0, 0.0, 0.0, 0.0, 0.0, 0.0, 0.0, 1.7641886647376823E9, 0.0, 2025-11-26 16:24:24.737
40.0, -128439.18096294177, -128745.10928930156, -128611.78113362566, -128702.21629169182, -129444.58478028594, -128567.03294122612, -128455.81066081653, -128698.59530909006, 0.0, 0.0, 0.0, 193.0, 0.0, 0.0, 0.0, 0.0, 0.0, 0.0, 0.0, 0.0, 0.0, 1.764188664741722E9, 0.0, 2025-11-26 16:24:24.741
41.0, -128443.45014613273, -128824.63679607354, -128643.07357586308, -128704.1832452039, -129395.07566631743, -128580.55574662158, -128456.34710268344, -128706.91015802744, 0.0, 0.0, 0.0, 193.0, 0.0, 0.0, 0.0, 0.0, 0.0, 0.0, 0.0, 0.0, 0.0, 1.764188664744701E9, 0.0, 2025-11-26 16:24:24.744
42.0, -128439.98562574216, -128960.44599538398, -128642.2689130627, -128700.69637306886, -129334.99417722157, -128582.61210711148, -128455.94477128325, -128706.39606790496, 0.0, 0.0, 0.0, 193.0, 0.0, 0.0, 0.0, 0.0, 0.0, 0.0, 0.0, 0.0, 0.0, 1.764188664748678E9, 0.0, 2025-11-26 16:24:24.748
43.0, -128438.68922456376, -129100.25615695193, -128627.22618904428, -128698.05886722314, -129281.014714362, -128579.79578731011, -128452.10027123694, -128699.06469572363, 0.0, 0.0, 0.0, 193.0, 0.0, 0.0, 0.0, 0.0, 0.0, 0.0, 0.0, 0.0, 0.0, 1.7641886647527208E9, 0.0, 2025-11-26 16:24:24.752
44.0, -128437.77280304108, -129256.1595745277, -128628.6567006894, -128700.6293178355, -129236.84766731832, -128568.37404589345, -128453.48607939317, -128700.60696609104, 0.0, 0.0, 0.0, 193.0, 0.0, 0.0, 0.0, 0.0, 0.0, 0.0, 0.0, 0.0, 0.0, 1.7641886647567067E9, 0.0, 2025-11-26 16:24:24.756
45.0, -128435.55998034001, -129558.06458688554, -128612.36227898148, -128699.46702712383, -129192.68062027462, -128560.57328707854, -128451.1167944809, -128696.71776255583, 0.0, 0.0, 0.0, 193.0, 0.0, 0.0, 0.0, 0.0, 0.0, 0.0, 0.0, 0.0, 0.0, 1.764188664760717E9, 0.0, 2025-11-26 16:24:24.760
46.0, -128434.44239311725, -129723.15457143243, -128609.70242139131, -128701.7245533138, -129150.18995406509, -128566.72001680375, -128452.32378868149, -128698.1259224565, 0.0, 0.0, 0.0, 193.0, 0.0, 0.0, 0.0, 0.0, 0.0, 0.0, 0.0, 0.0, 0.0, 1.7641886647647388E9, 0.0, 2025-11-26 16:24:24.764
47.0, -128432.02840471607, -129650.75727114169, -128591.41869442687, -128703.49034112577, -129115.0306600369, -128559.12042368895, -128448.83691654647, -128690.41457061942, 0.0, 0.0, 0.0, 193.0, 0.0, 0.0, 0.0, 0.0, 0.0, 0.0, 0.0, 0.0, 0.0, 1.7641886647697449E9, 0.0, 2025-11-26 16:24:24.769
48.0, -128435.5152768511, -129575.58835453849, -128597.63247938544, -128708.1842074614, -129086.80040678984, -128562.71905454625, -128451.25090494764, -128691.24158516427, 0.0, 0.0, 0.0, 193.0, 0.0, 0.0, 0.0, 0.0, 0.0, 0.0, 0.0, 0.0, 0.0, 1.7641886647727575E9, 0.0, 2025-11-26 16:24:24.772
49.0, -128435.55998034001, -129502.02876353607, -128599.57708115305, -128709.0335737507, -129060.55945879931, -128570.20688893877, -128451.56382937002, -128692.20271017584, 0.0, 0.0, 0.0, 193.0, 0.0, 0.0, 0.0, 0.0, 0.0, 0.0, 0.0, 0.0, 0.0, 1.7641886647769244E9, 0.0, 2025-11-26 16:24:24.776
50.0, -128435.38116638437, -129422.41184978627, -128604.8520928445, -128701.74690505826, -129027.03184211634, -128569.75985404967, -128453.19550671524, -128697.6788875674, 0.0, 0.0, 0.0, 193.0, 0.0, 0.0, 0.0, 0.0, 0.0, 0.0, 0.0, 0.0, 0.0, 1.7641886647807748E9, 0.0, 2025-11-26 16:24:24.780
51.0, -128437.75045129663, -129341.09620345787, -128603.39922945491, -128705.34553591556, -128990.17381550955, -128567.43527262632, -128454.80483231603, -128695.8236927776, 0.0, 0.0, 0.0, 193.0, 0.0, 0.0, 0.0, 0.0, 0.0, 0.0, 0.0, 0.0, 0.0, 1.7641886647848525E9, 0.0, 2025-11-26 16:24:24.784
52.0, -128437.83985827446, -129269.59297294533, -128587.73065659174, -128710.5311406292, -128965.36337916415, -128576.75595006418, -128453.84370730445, -128695.7789892887, 0.0, 0.0, 0.0, 193.0, 0.0, 0.0, 0.0, 0.0, 0.0, 0.0, 0.0, 0.0, 0.0, 1.7641886647887576E9, 0.0, 2025-11-26 16:24:24.788
53.0, -128440.79028854256, -129199.36379186677, -128604.04743004411, -128714.57680637561, -128942.16226841955, -128587.39538042492, -128458.62698061789, -128696.60600383354, 0.0, 0.0, 0.0, 193.0, 0.0, 0.0, 0.0, 0.0, 0.0, 0.0, 0.0, 0.0, 0.0, 1.7641886647927701E9, 0.0, 2025-11-26 16:24:24.792
54.0, -128438.95744549722, -129119.70217462805, -128619.24661627373, -128716.36494593203, -128908.70170696995, -128587.21656646927, -128462.29266670856, -128704.36205915954, 0.0, 0.0, 0.0, 193.0, 0.0, 0.0, 0.0, 0.0, 0.0, 0.0, 0.0, 0.0, 0.0, 1.7641886647978108E9, 0.0, 2025-11-26 16:24:24.797
55.0, -128441.14791645383, -128935.50144857186, -128619.22426452927, -128715.381469176, -128870.2120030179, -128582.00861001118, -128461.26448646361, -128710.21821620682, 0.0, 0.0, 0.0, 193.0, 0.0, 0.0, 0.0, 0.0, 0.0, 0.0, 0.0, 0.0, 0.0, 1.764188664800786E9, 0.0, 2025-11-26 16:24:24.800
56.0, -128448.90397177983, -128733.6875478849, -128639.00555837221, -128715.02384126472, -128826.78256354124, -128572.5985255955, -128462.78440508657, -128712.60985286355, 0.0, 0.0, 0.0, 193.0, 0.0, 0.0, 0.0, 0.0, 0.0, 0.0, 0.0, 0.0, 0.0, 1.764188664804814E9, 0.0, 2025-11-26 16:24:24.804
57.0, -128451.65323634783, -128846.25093296182, -128645.50991600871, -128717.75075408827, -128738.0908415426, -128579.63932509892, -128464.43843417626, -128713.92860578641, 0.0, 0.0, 0.0, 193.0, 0.0, 0.0, 0.0, 0.0, 0.0, 0.0, 0.0, 0.0, 0.0, 1.7641886648088357E9, 0.0, 2025-11-26 16:24:24.808
58.0, -128456.30239919454, -128973.7899868238, -128675.95299195684, -128716.6331668655, -128507.01850736362, -128616.74322089473, -128467.90295456685, -128719.18126573341, 0.0, 0.0, 0.0, 193.0, 0.0, 0.0, 0.0, 0.0, 0.0, 0.0, 0.0, 0.0, 0.0, 1.7641886648129582E9, 0.0, 2025-11-26 16:24:24.812
59.0, -128454.35779742693, -129077.88206075216, -128682.47970133778, -128714.64386160897, -128556.75113877669, -128630.73541292375, -128463.16438474231, -128715.56028313164, 0.0, 0.0, 0.0, 193.0, 0.0, 0.0, 0.0, 0.0, 0.0, 0.0, 0.0, 0.0, 0.0, 1.764188664816848E9, 0.0, 2025-11-26 16:24:24.816
60.0, -128449.59687585794, -129188.21027138356, -128678.21051814682, -128711.49226564077, -128719.49419015578, -128621.23592153024, -128458.85049806244, -128711.51461738523, 0.0, 0.0, 0.0, 193.0, 0.0, 0.0, 0.0, 0.0, 0.0, 0.0, 0.0, 0.0, 0.0, 1.7641886648208473E9, 0.0, 2025-11-26 16:24:24.820
61.0, -128449.46276539122, -129322.34308985986, -128664.866526707, -128710.37467841801, -128888.78630266027, -128618.24078777323, -128458.55992538453, -128713.10159124156, 0.0, 0.0, 0.0, 193.0, 0.0, 0.0, 0.0, 0.0, 0.0, 0.0, 0.0, 0.0, 0.0, 1.764188664825962E9, 0.0, 2025-11-26 16:24:24.825
62.0, -128443.22662868818, -129615.88854979142, -128642.02304387368, -128705.25612893775, -129170.50768977497, -128598.41479044138, -128456.32475093899, -128706.9772132608, 0.0, 0.0, 0.0, 193.0, 0.0, 0.0, 0.0, 0.0, 0.0, 0.0, 0.0, 0.0, 0.0, 1.764188664828832E9, 0.0, 2025-11-26 16:24:24.828
63.0, -128435.49292510665, -129700.40049557692, -128618.91134010689, -128700.98694574679, -129447.13287915384, -128575.12427271895, -128451.65323634783, -128696.11426545553, 0.0, 0.0, 0.0, 193.0, 0.0, 0.0, 0.0, 0.0, 0.0, 0.0, 0.0, 0.0, 0.0, 1.7641886648330364E9, 0.0, 2025-11-26 16:24:24.833
64.0, -128433.83889601695, -129620.71652659375, -128589.16116823688, -128701.99277424726, -129440.53911453953, -128565.49067085871, -128448.90397177983, -128689.09581769657, 0.0, 0.0, 0.0, 193.0, 0.0, 0.0, 0.0, 0.0, 0.0, 0.0, 0.0, 0.0, 0.0, 1.764188664836825E9, 0.0, 2025-11-26 16:24:24.836
65.0, -128434.84472451745, -129551.20260133775, -128581.80744431108, -128703.6244515925, -129418.2991288065, -128572.64322908441, -128449.37335841339, -128687.75471302924, 0.0, 0.0, 0.0, 193.0, 0.0, 0.0, 0.0, 0.0, 0.0, 0.0, 0.0, 0.0, 0.0, 1.7641886648408847E9, 0.0, 2025-11-26 16:24:24.840
66.0, -128439.49388736415, -129477.50889986861, -128609.83653185803, -128706.46312313834, -129390.78413138201, -128579.21464195427, -128453.03904450405, -128696.60600383354, 0.0, 0.0, 0.0, 193.0, 0.0, 0.0, 0.0, 0.0, 0.0, 0.0, 0.0, 0.0, 0.0, 1.7641886648448672E9, 0.0, 2025-11-26 16:24:24.844
67.0, -128438.08572746346, -129393.73456165011, -128618.41960172888, -128706.41841964942, -129350.9756745071, -128574.20785119628, -128455.22951546068, -128703.04330623666, 0.0, 0.0, 0.0, 193.0, 0.0, 0.0, 0.0, 0.0, 0.0, 0.0, 0.0, 0.0, 0.0, 1.7641886648488634E9, 0.0, 2025-11-26 16:24:24.848
68.0, -128436.34229139595, -129315.72697350109, -128594.68204911734, -128708.36302141703, -129317.73863050206, -128576.10774947498, -128454.33544568247, -128693.4767596098, 0.0, 0.0, 0.0, 193.0, 0.0, 0.0, 0.0, 0.0, 0.0, 0.0, 0.0, 0.0, 0.0, 1.7641886648528757E9, 0.0, 2025-11-26 16:24:24.852
69.0, -128440.87969552037, -129246.19069650063, -128589.22822347024, -128708.65359409495, -129294.35870580182, -128587.1495112359, -128454.98364627168, -128696.31543115563, 0.0, 0.0, 0.0, 193.0, 0.0, 0.0, 0.0, 0.0, 0.0, 0.0, 0.0, 0.0, 0.0, 1.7641886648559859E9, 0.0, 2025-11-26 16:24:24.855
70.0, -128443.65131183283, -129175.35801832177, -128598.88417707494, -128711.08993424058, -129269.45886247861, -128596.49254041823, -128457.57644862849, -128701.38927714698, 0.0, 0.0, 0.0, 193.0, 0.0, 0.0, 0.0, 0.0, 0.0, 0.0, 0.0, 0.0, 0.0, 1.7641886648608968E9, 0.0, 2025-11-26 16:24:24.860
71.0, -128437.50458210762, -129083.09001721026, -128615.24565401622, -128710.15116097346, -129235.17128648417, -128596.13491250694, -128458.4705184067, -128703.44563763686, 0.0, 0.0, 0.0, 193.0, 0.0, 0.0, 0.0, 0.0, 0.0, 0.0, 0.0, 0.0, 0.0, 1.7641886648648973E9, 0.0, 2025-11-26 16:24:24.864
72.0, -128442.39961414333, -128829.7553455538, -128638.73733743875, -128712.56514937463, -129193.23941388601, -128587.73065659174, -128460.3704166854, -128711.15698947395, 0.0, 0.0, 0.0, 193.0, 0.0, 0.0, 0.0, 0.0, 0.0, 0.0, 0.0, 0.0, 0.0, 1.764188664868892E9, 0.0, 2025-11-26 16:24:24.868
73.0, -128446.13235546737, -128761.51546973175, -128623.06876457558, -128714.19682671987, -129150.97226512102, -128579.28169718763, -128460.99626553015, -128705.81492254912, 0.0, 0.0, 0.0, 193.0, 0.0, 0.0, 0.0, 0.0, 0.0, 0.0, 0.0, 0.0, 0.0, 1.7641886648729274E9, 0.0, 2025-11-26 16:24:24.872
74.0, -128450.31213168052, -128909.75223895935, -128635.98807287075, -128712.4310389079, -129108.3698401892, -128579.90754603238, -128462.53853589756, -128710.9334720294, 0.0, 0.0, 0.0, 193.0, 0.0, 0.0, 0.0, 0.0, 0.0, 0.0, 0.0, 0.0, 0.0, 1.7641886648769407E9, 0.0, 2025-11-26 16:24:24.876
75.0, -128448.23341944617, -129051.75287148391, -128643.20768632981, -128711.04523075167, -129053.51865929588, -128585.71899959077, -128460.8174515745, -128711.15698947395, 0.0, 0.0, 0.0, 193.0, 0.0, 0.0, 0.0, 0.0, 0.0, 0.0, 0.0, 0.0, 0.0, 1.7641886648819537E9, 0.0, 2025-11-26 16:24:24.881
76.0, -128449.03808224657, -129188.61260278376, -128655.67995973588, -128712.56514937463, -128996.43230395703, -128594.77145609516, -128460.50452715214, -128711.67107959642, 0.0, 0.0, 0.0, 193.0, 0.0, 0.0, 0.0, 0.0, 0.0, 0.0, 0.0, 0.0, 0.0, 1.7641886648849828E9, 0.0, 2025-11-26 16:24:24.884
77.0, -128446.84761128994, -129397.4896547186, -128632.858828647, -128712.25222495226, -128947.48198359991, -128574.85605178548, -128460.43747191876, -128704.71968707081, 0.0, 0.0, 0.0, 193.0, 0.0, 0.0, 0.0, 0.0, 0.0, 0.0, 0.0, 0.0, 0.0, 1.7641886648879852E9, 0.0, 2025-11-26 16:24:24.887
78.0, -128445.95354151173, -129712.04575443814, -128610.39532546942, -128712.81101856363, -128911.71919247141, -128570.4527581278, -128459.54340214055, -128705.34553591556, 0.0, 0.0, 0.0, 193.0, 0.0, 0.0, 0.0, 0.0, 0.0, 0.0, 0.0, 0.0, 0.0, 1.764188664892964E9, 0.0, 2025-11-26 16:24:24.892
79.0, -128447.62992234588, -129706.32370785758, -128611.93759583683, -128711.69343134087, -128878.3256862552, -128566.60825808147, -128459.29753295155, -128706.64193709397, 0.0, 0.0, 0.0, 193.0, 0.0, 0.0, 0.0, 0.0, 0.0, 0.0, 0.0, 0.0, 0.0, 1.7641886648969617E9, 0.0, 2025-11-26 16:24:24.896
80.0, -128445.90883802282, -129622.1917417278, -128620.25244477422, -128715.02384126472, -128840.64064510354, -128562.18261267933, -128461.6668178638, -128704.25030043726, 0.0, 0.0, 0.0, 193.0, 0.0, 0.0, 0.0, 0.0, 0.0, 0.0, 0.0, 0.0, 0.0, 1.7641886649009671E9, 0.0, 2025-11-26 16:24:24.900
81.0, -128444.29951242203, -129547.51456350263, -128601.09699977601, -128713.57097787512, -128813.39386861252, -128568.37404589345, -128462.00209403064, -128703.73621031479, 0.0, 0.0, 0.0, 193.0, 0.0, 0.0, 0.0, 0.0, 0.0, 0.0, 0.0, 0.0, 0.0, 1.7641886649049816E9, 0.0, 2025-11-26 16:24:24.904
82.0, -128447.20523920123, -129476.41366439029, -128607.69076439033, -128716.2308354653, -128775.3511995496, -128578.20881345378, -128464.818413832, -128706.35136441606, 0.0, 0.0, 0.0, 193.0, 0.0, 0.0, 0.0, 0.0, 0.0, 0.0, 0.0, 0.0, 0.0, 1.7641886649089775E9, 0.0, 2025-11-26 16:24:24.908
83.0, -128453.70959683773, -129391.9464220937, -128643.7664799412, -128716.67787035441, -128575.81717679706, -128581.82979605554, -128468.01471328911, -128714.35328893106, 0.0, 0.0, 0.0, 193.0, 0.0, 0.0, 0.0, 0.0, 0.0, 0.0, 0.0, 0.0, 0.0, 1.7641886649119935E9, 0.0, 2025-11-26 16:24:24.911
84.0, -128455.67655034979, -129286.513243498, -128668.12988139749, -128717.25901571024, -128558.22635391074, -128603.19806375481, -128468.1264720114, -128720.67883261191, 0.0, 0.0, 0.0, 193.0, 0.0, 0.0, 0.0, 0.0, 0.0, 0.0, 0.0, 0.0, 0.0, 1.7641886649160032E9, 0.0, 2025-11-26 16:24:24.916
85.0, -128451.36266366992, -129182.488224803, -128654.98705565777, -128712.2298732078, -128740.75069913277, -128601.67814513185, -128466.29362896606, -128715.69439359837, 0.0, 0.0, 0.0, 193.0, 0.0, 0.0, 0.0, 0.0, 0.0, 0.0, 0.0, 0.0, 0.0, 1.764188664921013E9, 0.0, 2025-11-26 16:24:24.921
86.0, -128445.95354151173, -129045.13675512515, -128650.80727944462, -128715.89555929847, -128945.91736148804, -128587.9988775252, -128466.83007083299, -128717.63899536598, 0.0, 0.0, 0.0, 193.0, 0.0, 0.0, 0.0, 0.0, 0.0, 0.0, 0.0, 0.0, 0.0, 1.7641886649249978E9, 0.0, 2025-11-26 16:24:24.924
87.0, -128454.49190789365, -128762.61070521007, -128660.10560513803, -128715.80615232066, -129287.07203710939, -128605.12031377797, -128468.3723412004, -128720.96940528983, 0.0, 0.0, 0.0, 193.0, 0.0, 0.0, 0.0, 0.0, 0.0, 0.0, 0.0, 0.0, 0.0, 1.7641886649290228E9, 0.0, 2025-11-26 16:24:24.929
88.0, -128452.1673264703, -128775.32884780514, -128658.9656661708, -128711.62637610751, -129448.69750126572, -128600.98524105374, -128463.41025393132, -128712.632204608, 0.0, 0.0, 0.0, 193.0, 0.0, 0.0, 0.0, 0.0, 0.0, 0.0, 0.0, 0.0, 0.0, 1.7641886649330173E9, 0.0, 2025-11-26 16:24:24.933
89.0, -128448.27812293508, -128915.8319134512, -128634.42345075888, -128708.25126269476, -129399.23309078612, -128586.81423506908, -128460.86215506341, -128706.50782662725, 0.0, 0.0, 0.0, 193.0, 0.0, 0.0, 0.0, 0.0, 0.0, 0.0, 0.0, 0.0, 0.0, 1.7641886649370525E9, 0.0, 2025-11-26 16:24:24.937
90.0, -128447.45110839023, -129064.51571756789, -128636.92684613787, -128709.01122200624, -129351.80268905195, -128581.98625826673, -128460.30336145204, -128704.11618997052, 0.0, 0.0, 0.0, 193.0, 0.0, 0.0, 0.0, 0.0, 0.0, 0.0, 0.0, 0.0, 0.0, 1.7641886649400387E9, 0.0, 2025-11-26 16:24:24.940
91.0, -128447.96519851271, -129212.01487922847, -128643.72177645228, -128708.0277452502, -129302.87472043929, -128579.84049079902, -128459.85632656293, -128707.06662023862, 0.0, 0.0, 0.0, 193.0, 0.0, 0.0, 0.0, 0.0, 0.0, 0.0, 0.0, 0.0, 0.0, 1.7641886649440916E9, 0.0, 2025-11-26 16:24:24.944
92.0, -128445.01476824461, -129433.18539061373, -128646.5157445092, -128705.12201847101, -129247.1518215122, -128585.85311005749, -128460.68334110778, -128710.21821620682, 0.0, 0.0, 0.0, 193.0, 0.0, 0.0, 0.0, 0.0, 0.0, 0.0, 0.0, 0.0, 0.0, 1.7641886649490275E9, 0.0, 2025-11-26 16:24:24.949
93.0, -128440.07503271998, -129722.14874293194, -128620.38655524094, -128703.95972775934, -129204.30352739138, -128568.597563338, -128457.8670213064, -128701.50103586925, 0.0, 0.0, 0.0, 193.0, 0.0, 0.0, 0.0, 0.0, 0.0, 0.0, 0.0, 0.0, 0.0, 1.764188664953061E9, 0.0, 2025-11-26 16:24:24.953
94.0, -128443.65131183283, -129702.50155955572, -128603.82391259956, -128708.65359409495, -129178.53196603441, -128569.08930171601, -128458.29170445105, -128699.95876550184, 0.0, 0.0, 0.0, 193.0, 0.0, 0.0, 0.0, 0.0, 0.0, 0.0, 0.0, 0.0, 0.0, 1.7641886649571047E9, 0.0, 2025-11-26 16:24:24.957
95.0, -128442.80194554353, -129631.33360521003, -128598.43714218584, -128710.0841057401, -129154.61559946724, -128579.23699369872, -128459.40929167383, -128701.32222191361, 0.0, 0.0, 0.0, 193.0, 0.0, 0.0, 0.0, 0.0, 0.0, 0.0, 0.0, 0.0, 0.0, 1.7641886649610627E9, 0.0, 2025-11-26 16:24:24.961
96.0, -128446.24411418964, -129547.31339780253, -128618.97839534027, -128715.44852440937, -129116.21530249302, -128575.25838318568, -128461.48800390816, -128708.1842074614, 0.0, 0.0, 0.0, 193.0, 0.0, 0.0, 0.0, 0.0, 0.0, 0.0, 0.0, 0.0, 0.0, 1.7641886649650705E9, 0.0, 2025-11-26 16:24:24.965
97.0, -128445.99824500064, -129465.10368169591, -128612.58579642604, -128716.34259418758, -129080.47486310899, -128573.35848490697, -128460.92921029679, -128702.26099518074, 0.0, 0.0, 0.0, 193.0, 0.0, 0.0, 0.0, 0.0, 0.0, 0.0, 0.0, 0.0, 0.0, 1.7641886649681296E9, 0.0, 2025-11-26 16:24:24.968
98.0, -128444.25480893312, -129394.00278258357, -128600.49350267572, -128713.32510868611, -129055.77618548587, -128582.79092106712, -128460.9739137857, -128702.21629169182, 0.0, 0.0, 0.0, 193.0, 0.0, 0.0, 0.0, 0.0, 0.0, 0.0, 0.0, 0.0, 0.0, 1.7641886649721384E9, 0.0, 2025-11-26 16:24:24.972
99.0, -128447.02642524558, -129323.84065673836, -128612.89872084842, -128715.13559998698, -129032.84329567473, -128593.09507526101, -128462.89616380885, -128707.91598652792, 0.0, 0.0, 0.0, 193.0, 0.0, 0.0, 0.0, 0.0, 0.0, 0.0, 0.0, 0.0, 0.0, 1.7641886649770763E9, 0.0, 2025-11-26 16:24:24.977
100.0, -128452.79317531505, -129245.18486800014, -128626.82385764408, -128716.47670465431, -129000.00858306988, -128593.36329619448, -128467.81354758902, -128710.4864371403, 0.0, 0.0, 0.0, 193.0, 0.0, 0.0, 0.0, 0.0, 0.0, 0.0, 0.0, 0.0, 0.0, 1.7641886649810903E9, 0.0, 2025-11-26 16:24:24.981
101.0, -128453.91076253782, -129162.48341351551, -128635.04929960362, -128721.37173669002, -128961.83180354022, -128588.8482438145, -128471.14395751286, -128716.87903605451, 0.0, 0.0, 0.0, 193.0, 0.0, 0.0, 0.0, 0.0, 0.0, 0.0, 0.0, 0.0, 0.0, 1.7641886649851663E9, 0.0, 2025-11-26 16:24:24.985
102.0, -128449.95450376923, -129074.19402291704, -128605.612052156, -128728.07726002662, -128934.67443402702, -128594.14560725041, -128468.50645166713, -128710.50878888475, 0.0, 0.0, 0.0, 193.0, 0.0, 0.0, 0.0, 0.0, 0.0, 0.0, 0.0, 0.0, 0.0, 1.7641886649881203E9, 0.0, 2025-11-26 16:24:24.988
103.0, -128454.93894278276, -128833.46573513339, -128631.51772397969, -128724.16570474693, -128908.29937556975, -128600.98524105374, -128471.81450984652, -128714.57680637561, 0.0, 0.0, 0.0, 193.0, 0.0, 0.0, 0.0, 0.0, 0.0, 0.0, 0.0, 0.0, 0.0, 1.7641886649921396E9, 0.0, 2025-11-26 16:24:24.992
104.0, -128460.7727480856, -128772.31136230366, -128662.94427668385, -128720.23179772281, -128856.73390111137, -128584.98139202374, -128475.7260651262, -128724.72449835832, 0.0, 0.0, 0.0, 193.0, 0.0, 0.0, 0.0, 0.0, 0.0, 0.0, 0.0, 0.0, 0.0, 1.7641886649961665E9, 0.0, 2025-11-26 16:24:24.996
105.0, -128458.33640793996, -128902.80084643375, -128657.24458184774, -128719.98592853379, -128777.16169085047, -128582.85797630048, -128473.96027731423, -128723.11517275753, 0.0, 0.0, 0.0, 193.0, 0.0, 0.0, 0.0, 0.0, 0.0, 0.0, 0.0, 0.0, 0.0, 1.764188665000147E9, 0.0, 2025-11-26 16:24:25.000
106.0, -128461.33154169699, -129036.3525195542, -128663.88304995098, -128721.21527447883, -128550.17972590683, -128614.46334296028, -128472.59682090246, -128721.17057098993, 0.0, 0.0, 0.0, 193.0, 0.0, 0.0, 0.0, 0.0, 0.0, 0.0, 0.0, 0.0, 0.0, 1.7641886650041368E9, 0.0, 2025-11-26 16:24:25.004
107.0, -128462.04679751955, -129157.94600939107, -128673.8742797225, -128718.86834131103, -128543.58596129251, -128624.54397970963, -128474.07203603651, -128721.43879192338, 0.0, 0.0, 0.0, 193.0, 0.0, 0.0, 0.0, 0.0, 0.0, 0.0, 0.0, 0.0, 0.0, 1.7641886650091355E9, 0.0, 2025-11-26 16:24:25.009
108.0, -128462.069149264, -129267.42485373317, -128705.16672195992, -128721.01410877873, -128702.66332658094, -128646.5157445092, -128474.29555348106, -128730.20067574987, 0.0, 0.0, 0.0, 193.0, 0.0, 0.0, 0.0, 0.0, 0.0, 0.0, 0.0, 0.0, 0.0, 1.7641886650131996E9, 0.0, 2025-11-26 16:24:25.013
109.0, -128456.63767536136, -129462.7120450392, -128681.49622458176, -128719.15891398894, -128855.2139824884, -128631.45066874631, -128467.63473363337, -128724.2327599803, 0.0, 0.0, 0.0, 193.0, 0.0, 0.0, 0.0, 0.0, 0.0, 0.0, 0.0, 0.0, 0.0, 1.764188665016199E9, 0.0, 2025-11-26 16:24:25.016
110.0, -128449.30630318003, -129708.98356544776, -128642.38067178497, -128713.77214357522, -129105.77703783239, -128595.71022936229, -128459.49869865165, -128708.45242839486, 0.0, 0.0, 0.0, 193.0, 0.0, 0.0, 0.0, 0.0, 0.0, 0.0, 0.0, 0.0, 0.0, 1.7641886650201943E9, 0.0, 2025-11-26 16:24:25.020
111.0, -128445.4170996448, -129666.1576230714, -128613.72573539327, -128716.25318720976, -129448.96572219918, -128580.42163615486, -128458.76109108461, -128708.05009699466, 0.0, 0.0, 0.0, 193.0, 0.0, 0.0, 0.0, 0.0, 0.0, 0.0, 0.0, 0.0, 0.0, 1.7641886650241632E9, 0.0, 2025-11-26 16:24:25.024
112.0, -128444.47832637768, -129587.34537212198, -128610.3059184916, -128718.98010003331, -129475.98898124564, -128572.1961941953, -128460.10219575194, -128703.7809138037, 0.0, 0.0, 0.0, 193.0, 0.0, 0.0, 0.0, 0.0, 0.0, 0.0, 0.0, 0.0, 0.0, 1.7641886650282166E9, 0.0, 2025-11-26 16:24:25.028
113.0, -128445.39474790034, -129503.3698682034, -128615.04448831613, -128715.62733836501, -129436.58285577093, -128575.77247330816, -128463.05262602004, -128706.82075104961, 0.0, 0.0, 0.0, 193.0, 0.0, 0.0, 0.0, 0.0, 0.0, 0.0, 0.0, 0.0, 0.0, 1.7641886650322313E9, 0.0, 2025-11-26 16:24:25.032
114.0, -128444.99241650014, -129424.26704457606, -128616.34088949453, -128717.14725698797, -129402.89877687678, -128574.99016225222, -128463.43260567579, -128711.11228598503, 0.0, 0.0, 0.0, 193.0, 0.0, 0.0, 0.0, 0.0, 0.0, 0.0, 0.0, 0.0, 0.0, 1.7641886650371852E9, 0.0, 2025-11-26 16:24:25.037
115.0, -128448.12166072389, -129351.69093032969, -128606.37201146747, -128723.27163496873, -129377.39543645328, -128581.33805767752, -128465.2207452322, -128712.54279763017, 0.0, 0.0, 0.0, 193.0, 0.0, 0.0, 0.0, 0.0, 0.0, 0.0, 0.0, 0.0, 0.0, 1.764188665041188E9, 0.0, 2025-11-26 16:24:25.041
116.0, -128451.54147762555, -129279.22657480558, -128611.89289234793, -128723.383393691, -129351.19919195166, -128589.51879614817, -128467.74649235565, -128709.0335737507, 0.0, 0.0, 0.0, 193.0, 0.0, 0.0, 0.0, 0.0, 0.0, 0.0, 0.0, 0.0, 0.0, 1.7641886650442421E9, 0.0, 2025-11-26 16:24:25.044
117.0, -128452.14497472584, -129200.01199245597, -128620.72183140778, -128722.39991693497, -129317.2692438685, -128589.67525835935, -128463.4773091647, -128707.80422780565, 0.0, 0.0, 0.0, 193.0, 0.0, 0.0, 0.0, 0.0, 0.0, 0.0, 0.0, 0.0, 0.0, 1.7641886650482056E9, 0.0, 2025-11-26 16:24:25.048
118.0, -128446.80290780103, -129121.24444499546, -128614.3068807491, -128721.88582681249, -129283.76397893, -128590.03288627064, -128462.73970159766, -128710.35232667356, 0.0, 0.0, 0.0, 193.0, 0.0, 0.0, 0.0, 0.0, 0.0, 0.0, 0.0, 0.0, 0.0, 1.7641886650522516E9, 0.0, 2025-11-26 16:24:25.052
119.0, -128447.67462583478, -128953.38284413611, -128621.9064738639, -128725.41740243643, -129254.84082160484, -128595.7549328512, -128468.01471328911, -128711.1346377295, 0.0, 0.0, 0.0, 193.0, 0.0, 0.0, 0.0, 0.0, 0.0, 0.0, 0.0, 0.0, 0.0, 1.7641886650562332E9, 0.0, 2025-11-26 16:24:25.056
120.0, -128456.12358523889, -128748.55145794767, -128633.97641586977, -128723.80807683564, -129216.12760020824, -128591.17282523785, -128470.4734051792, -128716.11907674302, 0.0, 0.0, 0.0, 193.0, 0.0, 0.0, 0.0, 0.0, 0.0, 0.0, 0.0, 0.0, 0.0, 1.764188665060357E9, 0.0, 2025-11-26 16:24:25.060
121.0, -128458.58227712898, -128844.14986898302, -128664.55360228464, -128721.90817855694, -129159.84590766978, -128596.93957530733, -128472.3733034579, -128725.19388499188, 0.0, 0.0, 0.0, 193.0, 0.0, 0.0, 0.0, 0.0, 0.0, 0.0, 0.0, 0.0, 0.0, 1.7641886650652661E9, 0.0, 2025-11-26 16:24:25.065
122.0, -128456.72708233919, -128980.33904794921, -128652.59541900104, -128720.50001865627, -129100.52437788539, -128598.21362474129, -128471.81450984652, -128719.00245177776, 0.0, 0.0, 0.0, 193.0, 0.0, 0.0, 0.0, 0.0, 0.0, 0.0, 0.0, 0.0, 0.0, 1.7641886650692327E9, 0.0, 2025-11-26 16:24:25.069
123.0, -128456.83884106146, -129127.90526484315, -128646.53809625366, -128721.68466111239, -129052.53518253985, -128590.01053452618, -128471.30041972405, -128716.2308354653, 0.0, 0.0, 0.0, 193.0, 0.0, 0.0, 0.0, 0.0, 0.0, 0.0, 0.0, 0.0, 0.0, 1.764188665072312E9, 0.0, 2025-11-26 16:24:25.072
124.0, -128457.53174513958, -129287.94375514315, -128638.04443336064, -128721.55055064567, -129009.10574306319, -128583.68499084533, -128470.85338483495, -128714.64386160897, 0.0, 0.0, 0.0, 193.0, 0.0, 0.0, 0.0, 0.0, 0.0, 0.0, 0.0, 0.0, 0.0, 1.7641886650762968E9, 0.0, 2025-11-26 16:24:25.076
125.0, -128456.6153236169, -129592.41921811334, -128639.60905547251, -128718.95774828884, -128959.2390011834, -128591.70926710479, -128468.48409992267, -128714.84502730907, 0.0, 0.0, 0.0, 193.0, 0.0, 0.0, 0.0, 0.0, 0.0, 0.0, 0.0, 0.0, 0.0, 1.764188665080258E9, 0.0, 2025-11-26 16:24:25.080
126.0, -128451.69793983674, -129734.44220238236, -128618.91134010689, -128715.40382092046, -128919.07291639721, -128584.82492981254, -128467.18769874427, -128712.76631507472, 0.0, 0.0, 0.0, 193.0, 0.0, 0.0, 0.0, 0.0, 0.0, 0.0, 0.0, 0.0, 0.0, 1.7641886650842566E9, 0.0, 2025-11-26 16:24:25.084
127.0, -128449.8650967914, -129665.352960271, -128612.85401735951, -128717.70605059936, -128891.13323582808, -128583.61793561197, -128467.61238188892, -128711.31345168513, 0.0, 0.0, 0.0, 193.0, 0.0, 0.0, 0.0, 0.0, 0.0, 0.0, 0.0, 0.0, 0.0, 1.7641886650883112E9, 0.0, 2025-11-26 16:24:25.088
128.0, -128451.58618111447, -129594.27441290313, -128608.51777893517, -128720.12003900053, -128868.1109390391, -128591.17282523785, -128468.64056213386, -128713.50392264176, 0.0, 0.0, 0.0, 193.0, 0.0, 0.0, 0.0, 0.0, 0.0, 0.0, 0.0, 0.0, 0.0, 1.7641886650932825E9, 0.0, 2025-11-26 16:24:25.093
129.0, -128455.38597767187, -129513.53991193057, -128627.51676172219, -128720.41061167844, -128834.7621363118, -128590.97165953775, -128472.68622788027, -128718.42130642192, 0.0, 0.0, 0.0, 193.0, 0.0, 0.0, 0.0, 0.0, 0.0, 0.0, 0.0, 0.0, 0.0, 1.76418866509629E9, 0.0, 2025-11-26 16:24:25.096
130.0, -128454.13427998238, -129431.12903012385, -128620.31950000758, -128720.03063202271, -128785.09656013211, -128587.70830484729, -128469.53463191207, -128713.45921915285, 0.0, 0.0, 0.0, 193.0, 0.0, 0.0, 0.0, 0.0, 0.0, 0.0, 0.0, 0.0, 0.0, 1.7641886650993428E9, 0.0, 2025-11-26 16:24:25.099
131.0, -128457.6658556063, -129351.89209602978, -128632.18827631335, -128721.10351575656, -128593.31859270557, -128587.61889786947, -128471.59099240197, -128717.4825331548, 0.0, 0.0, 0.0, 193.0, 0.0, 0.0, 0.0, 0.0, 0.0, 0.0, 0.0, 0.0, 0.0, 1.764188665104311E9, 0.0, 2025-11-26 16:24:25.104
132.0, -128460.3257131965, -129260.02642631847, -128649.91320966641, -128727.33965245959, -128582.81327281157, -128590.92695604885, -128473.33442846948, -128724.29981521367, 0.0, 0.0, 0.0, 193.0, 0.0, 0.0, 0.0, 0.0, 0.0, 0.0, 0.0, 0.0, 0.0, 1.764188665108318E9, 0.0, 2025-11-26 16:24:25.108
133.0, -128457.30822769503, -129155.77789017891, -128671.92967795489, -128725.79738209218, -128768.0421791127, -128612.94342433733, -128475.79312035957, -128729.64188213849, 0.0, 0.0, 0.0, 193.0, 0.0, 0.0, 0.0, 0.0, 0.0, 0.0, 0.0, 0.0, 0.0, 1.7641886651123357E9, 0.0, 2025-11-26 16:24:25.112
134.0, -128453.82135556, -128930.04762292477, -128684.80428276114, -128723.47280066882, -128950.5888760792, -128626.06389833259, -128476.39661745986, -128729.01603329374, 0.0, 0.0, 0.0, 193.0, 0.0, 0.0, 0.0, 0.0, 0.0, 0.0, 0.0, 0.0, 0.0, 1.7641886651183324E9, 0.0, 2025-11-26 16:24:25.118
135.0, -128459.7669195851, -128721.17057098993, -128660.15030862694, -128719.24832096677, -129273.48217648057, -128604.06978178857, -128471.65804763533, -128718.91304479993, 0.0, 0.0, 0.0, 193.0, 0.0, 0.0, 0.0, 0.0, 0.0, 0.0, 0.0, 0.0, 0.0, 1.7641886651214156E9, 0.0, 2025-11-26 16:24:25.121
136.0, -128454.60366661593, -128832.59401709963, -128644.1688113414, -128717.79545757717, -129471.94331549923, -128590.99401128222, -128469.98166680118, -128716.14142848748, 0.0, 0.0, 0.0, 193.0, 0.0, 0.0, 0.0, 0.0, 0.0, 0.0, 0.0, 0.0, 0.0, 1.764188665124409E9, 0.0, 2025-11-26 16:24:25.124
137.0, -128458.58227712898, -128975.13109149113, -128662.1619656279, -128717.75075408827, -129428.6032830004, -128598.83947358603, -128472.10508252443, -128719.24832096677, 0.0, 0.0, 0.0, 193.0, 0.0, 0.0, 0.0, 0.0, 0.0, 0.0, 0.0, 0.0, 0.0, 1.7641886651283872E9, 0.0, 2025-11-26 16:24:25.128
138.0, -128457.8670213064, -129106.71581109952, -128667.34757034155, -128716.36494593203, -129365.28079095851, -128611.69172664783, -128473.8261668475, -128722.9810622908, 0.0, 0.0, 0.0, 193.0, 0.0, 0.0, 0.0, 0.0, 0.0, 0.0, 0.0, 0.0, 0.0, 1.7641886651323526E9, 0.0, 2025-11-26 16:24:25.132
139.0, -128452.3684921704, -129248.87290583526, -128640.8160496731, -128721.43879192338, -129308.06032515292, -128591.7986740826, -128469.26641097861, -128713.14629473047, 0.0, 0.0, 0.0, 193.0, 0.0, 0.0, 0.0, 0.0, 0.0, 0.0, 0.0, 0.0, 0.0, 1.764188665136396E9, 0.0, 2025-11-26 16:24:25.136
140.0, -128448.03225374607, -129546.79930768006, -128611.33409873655, -128719.71770760033, -129268.98947584504, -128579.95224952129, -128463.67847486479, -128707.133675472, 0.0, 0.0, 0.0, 193.0, 0.0, 0.0, 0.0, 0.0, 0.0, 0.0, 0.0, 0.0, 0.0, 1.764188665140382E9, 0.0, 2025-11-26 16:24:25.140
141.0, -128448.50164037963, -129745.7745368212, -128618.71017440679, -128722.82460007962, -129237.29470220742, -128577.49355763121, -128464.48313766517, -128708.20655920585, 0.0, 0.0, 0.0, 193.0, 0.0, 0.0, 0.0, 0.0, 0.0, 0.0, 0.0, 0.0, 0.0, 1.764188665144414E9, 0.0, 2025-11-26 16:24:25.144
142.0, -128451.58618111447, -129677.82523367707, -128620.78888664114, -128721.99758553477, -129200.92841397863, -128574.65488608538, -128467.18769874427, -128713.0792394971, 0.0, 0.0, 0.0, 193.0, 0.0, 0.0, 0.0, 0.0, 0.0, 0.0, 0.0, 0.0, 0.0, 1.764188665148381E9, 0.0, 2025-11-26 16:24:25.148
143.0, -128449.75333806913, -129596.33077339301, -128610.35062198051, -128720.09768725607, -129165.92558216162, -128573.31378141807, -128466.45009117725, -128712.09576274107, 0.0, 0.0, 0.0, 193.0, 0.0, 0.0, 0.0, 0.0, 0.0, 0.0, 0.0, 0.0, 0.0, 1.7641886651524203E9, 0.0, 2025-11-26 16:24:25.152
144.0, -128451.42971890328, -129524.20169403574, -128608.45072370181, -128722.66813786843, -129140.82457313832, -128581.51687163317, -128466.71831211071, -128710.95582377385, 0.0, 0.0, 0.0, 193.0, 0.0, 0.0, 0.0, 0.0, 0.0, 0.0, 0.0, 0.0, 0.0, 1.764188665155572E9, 0.0, 2025-11-26 16:24:25.155
145.0, -128455.14010848285, -129451.04443443353, -128624.05224133162, -128728.45723968235, -129114.18129374759, -128588.26709845867, -128472.9768005582, -128712.45339065236, 0.0, 0.0, 0.0, 193.0, 0.0, 0.0, 0.0, 0.0, 0.0, 0.0, 0.0, 0.0, 0.0, 1.7641886651594386E9, 0.0, 2025-11-26 16:24:25.159
146.0, -128457.08471025048, -129369.70643636066, -128627.62852044446, -128724.83625708059, -129078.68672355256, -128586.43425541333, -128474.60847790343, -128715.1803034759, 0.0, 0.0, 0.0, 193.0, 0.0, 0.0, 0.0, 0.0, 0.0, 0.0, 0.0, 0.0, 0.0, 1.7641886651644049E9, 0.0, 2025-11-26 16:24:25.164
147.0, -128458.33640793996, -129288.3684382878, -128617.19025578383, -128725.50680941425, -129042.96863591298, -128584.28848794563, -128473.11091102492, -128715.73909708728, 0.0, 0.0, 0.0, 193.0, 0.0, 0.0, 0.0, 0.0, 0.0, 0.0, 0.0, 0.0, 0.0, 1.7641886651684551E9, 0.0, 2025-11-26 16:24:25.168
148.0, -128457.30822769503, -129216.5969868418, -128606.9531568233, -128727.94314955988, -129017.28648153383, -128592.22335722725, -128473.84851859196, -128719.27067271122, 0.0, 0.0, 0.0, 193.0, 0.0, 0.0, 0.0, 0.0, 0.0, 0.0, 0.0, 0.0, 0.0, 1.764188665172436E9, 0.0, 2025-11-26 16:24:25.172
149.0, -128453.6648933488, -129147.23952379699, -128622.04058433064, -128731.5864839061, -128994.89003358962, -128604.02507829966, -128477.06716979352, -128721.50584715676, 0.0, 0.0, 0.0, 193.0, 0.0, 0.0, 0.0, 0.0, 0.0, 0.0, 0.0, 0.0, 0.0, 1.7641886651764572E9, 0.0, 2025-11-26 16:24:25.176
150.0, -128452.01086425912, -128974.12526299064, -128631.29420653514, -128732.79347810669, -128962.30119017378, -128604.62857539995, -128477.46950119371, -128722.71284135734, 0.0, 0.0, 0.0, 193.0, 0.0, 0.0, 0.0, 0.0, 0.0, 0.0, 0.0, 0.0, 0.0, 1.7641886651804664E9, 0.0, 2025-11-26 16:24:25.180
151.0, -128464.55019289855, -128760.46493774235, -128658.7197969818, -128729.64188213849, -128914.93784367297, -128590.90460430439, -128478.98941981667, -128724.16570474693, 0.0, 0.0, 0.0, 193.0, 0.0, 0.0, 0.0, 0.0, 0.0, 0.0, 0.0, 0.0, 0.0, 1.764188665183468E9, 0.0, 2025-11-26 16:24:25.183
152.0, -128463.85728882044, -128862.38889245855, -128657.2669335922, -128728.79251584919, -128865.33932272665, -128584.46730190127, -128477.67066689381, -128723.02576577972, 0.0, 0.0, 0.0, 193.0, 0.0, 0.0, 0.0, 0.0, 0.0, 0.0, 0.0, 0.0, 0.0, 1.764188665187461E9, 0.0, 2025-11-26 16:24:25.187
153.0, -128462.2256114752, -129014.8054378993, -128650.47200327778, -128723.98689079129, -128819.87587450456, -128579.12523497645, -128476.62013490441, -128720.45531516736, 0.0, 0.0, 0.0, 193.0, 0.0, 0.0, 0.0, 0.0, 0.0, 0.0, 0.0, 0.0, 0.0, 1.7641886651924787E9, 0.0, 2025-11-26 16:24:25.192
154.0, -128464.86311732091, -129157.02958786841, -128673.09196866656, -128725.2832919697, -128644.03470087466, -128616.76557263918, -128478.34121922747, -128728.92662631592, 0.0, 0.0, 0.0, 193.0, 0.0, 0.0, 0.0, 0.0, 0.0, 0.0, 0.0, 0.0, 0.0, 1.7641886651964624E9, 0.0, 2025-11-26 16:24:25.196
155.0, -128471.65804763533, -129265.48025196556, -128707.24543419426, -128729.4854199273, -128493.1827775458, -128659.74797722674, -128482.72216114071, -128738.7390421318, 0.0, 0.0, 0.0, 193.0, 0.0, 0.0, 0.0, 0.0, 0.0, 0.0, 0.0, 0.0, 0.0, 1.7641886652004833E9, 0.0, 2025-11-26 16:24:25.200
156.0, -128464.23726847616, -129453.88310597934, -128688.82759676309, -128728.72546061582, -128632.2106280578, -128630.9589303683, -128476.08369303748, -128727.80903909315, 0.0, 0.0, 0.0, 193.0, 0.0, 0.0, 0.0, 0.0, 0.0, 0.0, 0.0, 0.0, 0.0, 1.7641886652045057E9, 0.0, 2025-11-26 16:24:25.204
157.0, -128459.25282946264, -129722.0146324652, -128653.19891610133, -128722.84695182407, -128819.56295008218, -128604.04743004411, -128471.2780679796, -128720.81294307864, 0.0, 0.0, 0.0, 193.0, 0.0, 0.0, 0.0, 0.0, 0.0, 0.0, 0.0, 0.0, 0.0, 1.7641886652084944E9, 0.0, 2025-11-26 16:24:25.208
158.0, -128458.85049806244, -129669.26451555069, -128660.2173638603, -128721.37173669002, -129040.77816495635, -128609.38949696893, -128472.82033834701, -128725.81973383663, 0.0, 0.0, 0.0, 193.0, 0.0, 0.0, 0.0, 0.0, 0.0, 0.0, 0.0, 0.0, 0.0, 1.7641886652115467E9, 0.0, 2025-11-26 16:24:25.211
159.0, -128451.89910553684, -129566.71471198974, -128643.43120377437, -128718.42130642192, -129398.04844833, -128594.61499388398, -128469.80285284555, -128717.05785001015, 0.0, 0.0, 0.0, 193.0, 0.0, 0.0, 0.0, 0.0, 0.0, 0.0, 0.0, 0.0, 0.0, 1.7641886652155495E9, 0.0, 2025-11-26 16:24:25.215
160.0, -128450.6697595918, -129485.19789996123, -128612.85401735951, -128717.97427153282, -129488.14833022933, -128571.79386279511, -128464.10315800944, -128706.79839930516, 0.0, 0.0, 0.0, 193.0, 0.0, 0.0, 0.0, 0.0, 0.0, 0.0, 0.0, 0.0, 0.0, 1.7641886652205157E9, 0.0, 2025-11-26 16:24:25.220
161.0, -128451.60853285893, -129412.93471013723, -128616.43029647236, -128722.26580646823, -129462.48852759464, -128578.96877276526, -128468.66291387832, -128709.97234701781, 0.0, 0.0, 0.0, 193.0, 0.0, 0.0, 0.0, 0.0, 0.0, 0.0, 0.0, 0.0, 0.0, 1.7641886652246375E9, 0.0, 2025-11-26 16:24:25.224
162.0, -128454.2683904491, -129338.83867726788, -128611.98229932575, -128724.0315942802, -129433.78888771402, -128585.60724086848, -128471.59099240197, -128714.24153020878, 0.0, 0.0, 0.0, 193.0, 0.0, 0.0, 0.0, 0.0, 0.0, 0.0, 0.0, 0.0, 0.0, 1.7641886652285354E9, 0.0, 2025-11-26 16:24:25.228
163.0, -128457.39763467285, -129258.32769373986, -128624.70044192082, -128721.81877157913, -129397.86963437435, -128583.66263910088, -128473.2226697472, -128716.99079477678, 0.0, 0.0, 0.0, 193.0, 0.0, 0.0, 0.0, 0.0, 0.0, 0.0, 0.0, 0.0, 0.0, 1.7641886652325659E9, 0.0, 2025-11-26 16:24:25.232
164.0, -128454.7154253382, -129181.72826549153, -128612.51874119267, -128721.34938494557, -129365.37019793632, -128585.49548214622, -128473.73675986967, -128717.92956804391, 0.0, 0.0, 0.0, 193.0, 0.0, 0.0, 0.0, 0.0, 0.0, 0.0, 0.0, 0.0, 0.0, 1.7641886652355416E9, 0.0, 2025-11-26 16:24:25.235
165.0, -128451.20620145873, -129110.0238692789, -128602.41575269887, -128722.08699251259, -129341.6773488137, -128596.26902297366, -128473.89322208086, -128716.92373954342, 0.0, 0.0, 0.0, 193.0, 0.0, 0.0, 0.0, 0.0, 0.0, 0.0, 0.0, 0.0, 0.0, 1.7641886652395697E9, 0.0, 2025-11-26 16:24:25.239
166.0, -128457.08471025048, -128904.85720692364, -128635.58574147055, -128725.12682975852, -129314.13999964476, -128602.48280793225, -128477.22363200471, -128720.38825993398, 0.0, 0.0, 0.0, 193.0, 0.0, 0.0, 0.0, 0.0, 0.0, 0.0, 0.0, 0.0, 0.0, 1.7641886652437959E9, 0.0, 2025-11-26 16:24:25.243
167.0, -128466.4724429217, -128748.37264399203, -128673.38254134447, -128728.99368154928, -129264.07209206487, -128598.9512323083, -128479.27999249459, -128729.66423388294, 0.0, 0.0, 0.0, 193.0, 0.0, 0.0, 0.0, 0.0, 0.0, 0.0, 0.0, 0.0, 0.0, 1.764188665248592E9, 0.0, 2025-11-26 16:24:25.248
168.0, -128465.75718709912, -128863.10414828113, -128667.59343953055, -128734.02282405173, -129203.85649250228, -128606.59552891202, -128478.07299829401, -128728.12196351553, 0.0, 0.0, 0.0, 193.0, 0.0, 0.0, 0.0, 0.0, 0.0, 0.0, 0.0, 0.0, 0.0, 1.7641886652525787E9, 0.0, 2025-11-26 16:24:25.252
169.0, -128460.3704166854, -129010.33508900824, -128635.87631414847, -128726.02089953673, -129155.73318669, -128588.46826415877, -128477.64831514936, -128723.49515241328, 0.0, 0.0, 0.0, 193.0, 0.0, 0.0, 0.0, 0.0, 0.0, 0.0, 0.0, 0.0, 0.0, 1.7641886652566636E9, 0.0, 2025-11-26 16:24:25.256
170.0, -128459.29753295155, -129163.82451818282, -128642.33596829606, -128725.35034720307, -129112.86254082473, -128588.26709845867, -128475.77076861511, -128722.06464076813, 0.0, 0.0, 0.0, 193.0, 0.0, 0.0, 0.0, 0.0, 0.0, 0.0, 0.0, 0.0, 0.0, 1.7641886652596393E9, 0.0, 2025-11-26 16:24:25.259
171.0, -128460.88450680787, -129320.4208398367, -128659.07742489308, -128726.80321059267, -129058.0113599314, -128601.87931083195, -128474.42966394778, -128721.2823297122, 0.0, 0.0, 0.0, 193.0, 0.0, 0.0, 0.0, 0.0, 0.0, 0.0, 0.0, 0.0, 0.0, 1.7641886652636557E9, 0.0, 2025-11-26 16:24:25.263
172.0, -128459.00696027363, -129634.5522564116, -128633.61878795849, -128722.37756519052, -129007.92110060705, -128596.22431948475, -128473.78146335858, -128718.64482386647, 0.0, 0.0, 0.0, 193.0, 0.0, 0.0, 0.0, 0.0, 0.0, 0.0, 0.0, 0.0, 0.0, 1.7641886652676685E9, 0.0, 2025-11-26 16:24:25.267
173.0, -128458.93990504026, -129751.22836246829, -128612.87636910396, -128722.66813786843, -128978.34974269269, -128587.37302868045, -128471.25571623513, -128715.00148952026, 0.0, 0.0, 0.0, 193.0, 0.0, 0.0, 0.0, 0.0, 0.0, 0.0, 0.0, 0.0, 0.0, 1.7641886652716968E9, 0.0, 2025-11-26 16:24:25.271
174.0, -128456.570620128, -129681.82619593457, -128618.88898836244, -128728.21137049334, -128953.87458251412, -128593.11742700548, -128473.55794591403, -128717.75075408827, 0.0, 0.0, 0.0, 193.0, 0.0, 0.0, 0.0, 0.0, 0.0, 0.0, 0.0, 0.0, 0.0, 1.7641886652757292E9, 0.0, 2025-11-26 16:24:25.275
175.0, -128459.47634690719, -129602.07517171802, -128627.71792742229, -128729.15014376047, -128920.90575944255, -128593.98914503923, -128476.08369303748, -128716.78962907668, 0.0, 0.0, 0.0, 193.0, 0.0, 0.0, 0.0, 0.0, 0.0, 0.0, 0.0, 0.0, 0.0, 1.7641886652806516E9, 0.0, 2025-11-26 16:24:25.280
176.0, -128460.88450680787, -129518.09966779944, -128627.49440997773, -128726.95967280385, -128883.10895956862, -128589.07176125905, -128477.29068723807, -128718.82363782212, 0.0, 0.0, 0.0, 193.0, 0.0, 0.0, 0.0, 0.0, 0.0, 0.0, 0.0, 0.0, 0.0, 1.7641886652846832E9, 0.0, 2025-11-26 16:24:25.284
177.0, -128459.18577422926, -129443.04250991852, -128618.66547091788, -128728.881922827, -128853.96228479891, -128593.20683398329, -128476.55307967104, -128717.86251281053, 0.0, 0.0, 0.0, 193.0, 0.0, 0.0, 0.0, 0.0, 0.0, 0.0, 0.0, 0.0, 0.0, 1.7641886652876344E9, 0.0, 2025-11-26 16:24:25.287
178.0, -128464.28197196509, -129371.9863142951, -128625.77332565468, -128733.39697520698, -128830.29178742073, -128602.57221491006, -128480.08465529498, -128722.10934425704, 0.0, 0.0, 0.0, 193.0, 0.0, 0.0, 0.0, 0.0, 0.0, 0.0, 0.0, 0.0, 0.0, 1.7641886652916408E9, 0.0, 2025-11-26 16:24:25.291
179.0, -128466.0701115215, -129294.09048486836, -128633.55173272511, -128733.3299199736, -128760.73315867582, -128605.18736901134, -128481.40340821784, -128724.50098091377, 0.0, 0.0, 0.0, 193.0, 0.0, 0.0, 0.0, 0.0, 0.0, 0.0, 0.0, 0.0, 0.0, 1.76418866529769E9, 0.0, 2025-11-26 16:24:25.297
180.0, -128466.69596036625, -129203.58827156882, -128666.7217214968, -128734.22398975183, -128548.83862123951, -128599.04063928613, -128484.21972801922, -128732.12292577303, 0.0, 0.0, 0.0, 193.0, 0.0, 0.0, 0.0, 0.0, 0.0, 0.0, 0.0, 0.0, 0.0, 1.7641886653007019E9, 0.0, 2025-11-26 16:24:25.300
181.0, -128463.29849520905, -129066.2144501465, -128668.48750930876, -128736.2356467528, -128623.44874423133, -128609.59066266903, -128484.39854197485, -128733.95576881836, 0.0, 0.0, 0.0, 193.0, 0.0, 0.0, 0.0, 0.0, 0.0, 0.0, 0.0, 0.0, 0.0, 1.764188665303836E9, 0.0, 2025-11-26 16:24:25.303
182.0, -128473.06620753602, -128780.8497286856, -128683.95491647183, -128737.6885101424, -128807.8506359876, -128629.97545361228, -128487.25956526514, -128739.09667004309, 0.0, 0.0, 0.0, 193.0, 0.0, 0.0, 0.0, 0.0, 0.0, 0.0, 0.0, 0.0, 0.0, 1.7641886653086755E9, 0.0, 2025-11-26 16:24:25.308
183.0, -128476.79894886006, -128766.36579827855, -128700.0258207352, -128732.8381815956, -128978.46150141496, -128645.28639856416, -128484.93498384178, -128736.34740547508, 0.0, 0.0, 0.0, 193.0, 0.0, 0.0, 0.0, 0.0, 0.0, 0.0, 0.0, 0.0, 0.0, 1.764188665312684E9, 0.0, 2025-11-26 16:24:25.312
184.0, -128470.49575692366, -128871.44134896295, -128698.41649513443, -128729.57482690513, -129267.00017058852, -128641.10662235101, -128480.48698669518, -128732.8381815956, 0.0, 0.0, 0.0, 193.0, 0.0, 0.0, 0.0, 0.0, 0.0, 0.0, 0.0, 0.0, 0.0, 1.764188665315706E9, 0.0, 2025-11-26 16:24:25.315
185.0, -128461.95739054173, -129002.28846100433, -128660.55264002713, -128726.26676872573, -129488.75182732963, -128601.14170326492, -128474.96610581472, -128724.2327599803, 0.0, 0.0, 0.0, 193.0, 0.0, 0.0, 0.0, 0.0, 0.0, 0.0, 0.0, 0.0, 0.0, 1.7641886653196852E9, 0.0, 2025-11-26 16:24:25.319
186.0, -128460.63863761886, -129150.01114010945, -128641.4642502623, -128726.93732105939, -129457.99582695912, -128594.32442120605, -128474.49671918116, -128721.21527447883, 0.0, 0.0, 0.0, 193.0, 0.0, 0.0, 0.0, 0.0, 0.0, 0.0, 0.0, 0.0, 0.0, 1.764188665323704E9, 0.0, 2025-11-26 16:24:25.323
187.0, -128460.68334110778, -129309.64729900924, -128660.30677083813, -128725.01507103624, -129409.17961706873, -128594.21266248378, -128475.27903023708, -128722.89165531298, 0.0, 0.0, 0.0, 193.0, 0.0, 0.0, 0.0, 0.0, 0.0, 0.0, 0.0, 0.0, 0.0, 1.764188665327786E9, 0.0, 2025-11-26 16:24:25.327
188.0, -128460.21395447421, -129615.06153524657, -128627.47205823328, -128721.72936460131, -129356.85418329886, -128598.88417707494, -128473.69205638077, -128720.67883261191, 0.0, 0.0, 0.0, 193.0, 0.0, 0.0, 0.0, 0.0, 0.0, 0.0, 0.0, 0.0, 0.0, 1.764188665331706E9, 0.0, 2025-11-26 16:24:25.331
189.0, -128455.85536430543, -129749.55198163414, -128619.85011337402, -128720.76823958973, -129320.06321192542, -128588.82589207005, -128470.6745708793, -128712.34163193007, 0.0, 0.0, 0.0, 193.0, 0.0, 0.0, 0.0, 0.0, 0.0, 0.0, 0.0, 0.0, 0.0, 1.764188665336773E9, 0.0, 2025-11-26 16:24:25.336
190.0, -128456.9729515282, -129681.87089942348, -128615.53622669414, -128727.76433560424, -129294.53751975746, -128591.5528048936, -128470.85338483495, -128714.15212323096, 0.0, 0.0, 0.0, 193.0, 0.0, 0.0, 0.0, 0.0, 0.0, 0.0, 0.0, 0.0, 0.0, 1.764188665339743E9, 0.0, 2025-11-26 16:24:25.339
191.0, -128459.58810562946, -129607.75251480968, -128626.5556367106, -128730.08891702759, -129267.49190896653, -128597.47601717425, -128474.78729185907, -128718.82363782212, 0.0, 0.0, 0.0, 193.0, 0.0, 0.0, 0.0, 0.0, 0.0, 0.0, 0.0, 0.0, 0.0, 1.764188665343733E9, 0.0, 2025-11-26 16:24:25.343
192.0, -128459.63280911838, -129523.88876961336, -128628.4108315004, -128726.08795477009, -129228.82339105886, -128593.56446189458, -128476.32956222648, -128722.17639949042, 0.0, 0.0, 0.0, 193.0, 0.0, 0.0, 0.0, 0.0, 0.0, 0.0, 0.0, 0.0, 0.0, 1.7641886653479967E9, 0.0, 2025-11-26 16:24:25.347
193.0, -128461.53270739708, -129441.67905350674, -128622.59937794202, -128724.00924253574, -129191.56303305186, -128591.10577000449, -128475.97193431521, -128717.90721629946, 0.0, 0.0, 0.0, 193.0, 0.0, 0.0, 0.0, 0.0, 0.0, 0.0, 0.0, 0.0, 0.0, 1.7641886653518136E9, 0.0, 2025-11-26 16:24:25.351
194.0, -128458.64933236234, -129370.91343056124, -128607.48959869023, -128724.41157393594, -129168.18310835162, -128600.33704046454, -128472.28389648008, -128715.73909708728, 0.0, 0.0, 0.0, 193.0, 0.0, 0.0, 0.0, 0.0, 0.0, 0.0, 0.0, 0.0, 0.0, 1.7641886653558125E9, 0.0, 2025-11-26 16:24:25.355
195.0, -128462.60559113094, -129301.80183670543, -128618.10667730651, -128727.65257688197, -129145.49608772948, -128611.44585745882, -128477.51420468262, -128720.70118435637, 0.0, 0.0, 0.0, 193.0, 0.0, 0.0, 0.0, 0.0, 0.0, 0.0, 0.0, 0.0, 0.0, 1.7641886653597565E9, 0.0, 2025-11-26 16:24:25.359
196.0, -128461.24213471916, -129224.62126310126, -128634.15522982541, -128727.98785304879, -129113.15311350265, -128612.42933421486, -128480.50933843963, -128722.64578612398, 0.0, 0.0, 0.0, 193.0, 0.0, 0.0, 0.0, 0.0, 0.0, 0.0, 0.0, 0.0, 0.0, 1.7641886653647852E9, 0.0, 2025-11-26 16:24:25.364
197.0, -128455.67655034979, -129145.31727377384, -128629.41666000089, -128727.5855216486, -129078.50790959691, -128611.02117431417, -128478.63179190538, -128719.76241108924, 0.0, 0.0, 0.0, 193.0, 0.0, 0.0, 0.0, 0.0, 0.0, 0.0, 0.0, 0.0, 0.0, 1.7641886653677948E9, 0.0, 2025-11-26 16:24:25.367
198.0, -128456.72708233919, -128995.53823417882, -128625.81802914359, -128729.0830885271, -129051.39524357262, -128616.76557263918, -128479.59291691697, -128724.2327599803, 0.0, 0.0, 0.0, 193.0, 0.0, 0.0, 0.0, 0.0, 0.0, 0.0, 0.0, 0.0, 0.0, 1.764188665371897E9, 0.0, 2025-11-26 16:24:25.371
199.0, -128470.56281215702, -128770.3444087916, -128648.54975325463, -128734.5369141742, -129016.68298443354, -128615.80444762761, -128484.13032104139, -128728.25607398225, 0.0, 0.0, 0.0, 193.0, 0.0, 0.0, 0.0, 0.0, 0.0, 0.0, 0.0, 0.0, 0.0, 1.7641886653757834E9, 0.0, 2025-11-26 16:24:25.375
200.0, -128471.38982670187, -128852.4647179204, -128675.1706809009, -128736.50386768626, -128962.8376320407, -128598.07951427455, -128483.45976870773, -128733.12875427351, 0.0, 0.0, 0.0, 193.0, 0.0, 0.0, 0.0, 0.0, 0.0, 0.0, 0.0, 0.0, 0.0, 1.7641886653800132E9, 0.0, 2025-11-26 16:24:25.380
201.0, -128468.1264720114, -128990.15146376508, -128665.82765171859, -128731.76529786174, -128906.1759598465, -128595.57611889555, -128481.53751868458, -128728.85957108255, 0.0, 0.0, 0.0, 193.0, 0.0, 0.0, 0.0, 0.0, 0.0, 0.0, 0.0, 0.0, 0.0, 1.76418866538383E9, 0.0, 2025-11-26 16:24:25.383
202.0, -128468.90878306732, -129136.22011378052, -128652.08132887857, -128731.27355948373, -128857.82913658967, -128597.4536654298, -128481.6269256624, -128730.3347862166, 0.0, 0.0, 0.0, 193.0, 0.0, 0.0, 0.0, 0.0, 0.0, 0.0, 0.0, 0.0, 0.0, 1.764188665387813E9, 0.0, 2025-11-26 16:24:25.387
203.0, -128466.69596036625, -129296.32565931388, -128655.90347718043, -128732.61466415104, -128802.32975510714, -128590.77049383766, -128485.40437047534, -128732.21233275085, 0.0, 0.0, 0.0, 193.0, 0.0, 0.0, 0.0, 0.0, 0.0, 0.0, 0.0, 0.0, 0.0, 1.7641886653928163E9, 0.0, 2025-11-26 16:24:25.392
204.0, -128468.59585864496, -129606.1431892089, -128673.82957623359, -128731.72059437283, -128597.67718287435, -128614.95508133831, -128484.68911465278, -128731.34061471709, 0.0, 0.0, 0.0, 193.0, 0.0, 0.0, 0.0, 0.0, 0.0, 0.0, 0.0, 0.0, 0.0, 1.7641886653958373E9, 0.0, 2025-11-26 16:24:25.395
205.0, -128469.93696331227, -129715.21970215079, -128682.54675657116, -128730.40184144996, -128536.67927225582, -128635.00459611471, -128484.59970767495, -128731.67589088393, 0.0, 0.0, 0.0, 193.0, 0.0, 0.0, 0.0, 0.0, 0.0, 0.0, 0.0, 0.0, 0.0, 1.7641886653988335E9, 0.0, 2025-11-26 16:24:25.398
206.0, -128467.4782714222, -129615.28505269112, -128665.11239589601, -128729.41836469393, -128715.1803034759, -128614.66450866038, -128479.10117853894, -128727.7866873487, 0.0, 0.0, 0.0, 193.0, 0.0, 0.0, 0.0, 0.0, 0.0, 0.0, 0.0, 0.0, 0.0, 1.764188665403829E9, 0.0, 2025-11-26 16:24:25.403
207.0, -128463.85728882044, -129516.98208057668, -128661.4690615498, -128726.44558268138, -128914.08847738367, -128601.61108989849, -128478.90001283886, -128729.79834434968, 0.0, 0.0, 0.0, 193.0, 0.0, 0.0, 0.0, 0.0, 0.0, 0.0, 0.0, 0.0, 0.0, 1.76418866540802E9, 0.0, 2025-11-26 16:24:25.408
208.0, -128467.21005048872, -129414.11935259335, -128685.72070428381, -128729.55247516066, -129224.82242880136, -128618.24078777323, -128481.58222217349, -128732.81582985114, 0.0, 0.0, 0.0, 193.0, 0.0, 0.0, 0.0, 0.0, 0.0, 0.0, 0.0, 0.0, 0.0, 1.76418866541188E9, 0.0, 2025-11-26 16:24:25.411
209.0, -128463.16438474231, -129321.20315089264, -128627.89674137793, -128727.89844607098, -129484.0132575051, -128596.73840960723, -128477.38009421589, -128719.62830062251, 0.0, 0.0, 0.0, 193.0, 0.0, 0.0, 0.0, 0.0, 0.0, 0.0, 0.0, 0.0, 0.0, 1.7641886654158723E9, 0.0, 2025-11-26 16:24:25.415
210.0, -128460.86215506341, -129243.37437669927, -128624.34281400953, -128733.50873392925, -129472.81503353298, -128584.02026701217, -128475.03316104808, -128718.68952735538, 0.0, 0.0, 0.0, 193.0, 0.0, 0.0, 0.0, 0.0, 0.0, 0.0, 0.0, 0.0, 0.0, 1.764188665421913E9, 0.0, 2025-11-26 16:24:25.421
211.0, -128459.81162307401, -129173.59223050979, -128620.92299710787, -128735.02865255221, -129447.8034314875, -128593.20683398329, -128477.93888782727, -128720.38825993398, 0.0, 0.0, 0.0, 193.0, 0.0, 0.0, 0.0, 0.0, 0.0, 0.0, 0.0, 0.0, 0.0, 1.764188665424893E9, 0.0, 2025-11-26 16:24:25.424
212.0, -128457.15176548384, -129085.43695037806, -128620.31950000758, -128730.67006238343, -129421.76364919706, -128601.78990385414, -128482.11866404042, -128724.27746346922, 0.0, 0.0, 0.0, 193.0, 0.0, 0.0, 0.0, 0.0, 0.0, 0.0, 0.0, 0.0, 0.0, 1.7641886654289727E9, 0.0, 2025-11-26 16:24:25.428
213.0, -128467.56767840001, -128827.05078447472, -128660.2620673492, -128731.51942867273, -129380.59173591039, -128597.27485147415, -128484.68911465278, -128731.87705658401, 0.0, 0.0, 0.0, 193.0, 0.0, 0.0, 0.0, 0.0, 0.0, 0.0, 0.0, 0.0, 0.0, 1.7641886654319298E9, 0.0, 2025-11-26 16:24:25.431
214.0, -128471.45688193523, -128772.95956289287, -128663.39131157295, -128735.00630080776, -129328.33335737388, -128602.28164223215, -128483.99621057467, -128732.45820193985, 0.0, 0.0, 0.0, 193.0, 0.0, 0.0, 0.0, 0.0, 0.0, 0.0, 0.0, 0.0, 0.0, 1.76418866543608E9, 0.0, 2025-11-26 16:24:25.436
215.0, -128467.00888478862, -128920.14580013107, -128648.79562244363, -128736.57092291964, -129282.19935681814, -128595.08438051754, -128481.47046345122, -128726.95967280385, 0.0, 0.0, 0.0, 193.0, 0.0, 0.0, 0.0, 0.0, 0.0, 0.0, 0.0, 0.0, 0.0, 1.7641886654399164E9, 0.0, 2025-11-26 16:24:25.439
216.0, -128467.50062316665, -129070.97537171548, -128661.15613712743, -128732.54760891768, -129234.72425159506, -128600.51585442017, -128482.56569892952, -128730.5806554056, 0.0, 0.0, 0.0, 193.0, 0.0, 0.0, 0.0, 0.0, 0.0, 0.0, 0.0, 0.0, 0.0, 1.7641886654439094E9, 0.0, 2025-11-26 16:24:25.443
217.0, -128469.84755633445, -129207.76804778195, -128680.35628561453, -128735.40863220795, -129174.95568692157, -128618.08432556204, -128484.06326580803, -128734.91689382994, 0.0, 0.0, 0.0, 193.0, 0.0, 0.0, 0.0, 0.0, 0.0, 0.0, 0.0, 0.0, 0.0, 1.7641886654489436E9, 0.0, 2025-11-26 16:24:25.448
218.0, -128465.73483535467, -129387.85605285836, -128652.2154393453, -128733.91106532945, -129117.55640716034, -128607.9589853238, -128479.54821342806, -128722.39991693497, 0.0, 0.0, 0.0, 193.0, 0.0, 0.0, 0.0, 0.0, 0.0, 0.0, 0.0, 0.0, 0.0, 1.7641886654519367E9, 0.0, 2025-11-26 16:24:25.451
219.0, -128463.16438474231, -129716.98548996277, -128623.98518609825, -128733.35227171806, -129080.02782821989, -128593.8997380614, -128473.58029765848, -128715.67204185392, 0.0, 0.0, 0.0, 193.0, 0.0, 0.0, 0.0, 0.0, 0.0, 0.0, 0.0, 0.0, 0.0, 1.7641886654550452E9, 0.0, 2025-11-26 16:24:25.455
220.0, -128462.38207368639, -129753.82116482512, -128608.45072370181, -128733.97812056281, -129057.3631593422, -128598.57125265256, -128476.44132094877, -128718.71187909984, 0.0, 0.0, 0.0, 193.0, 0.0, 0.0, 0.0, 0.0, 0.0, 0.0, 0.0, 0.0, 0.0, 1.7641886654599352E9, 0.0, 2025-11-26 16:24:25.459
221.0, -128465.95835279922, -129673.44429176382, -128640.68193920636, -128732.50290542876, -129024.97548162646, -128598.88417707494, -128480.21876576172, -128724.97036754733, 0.0, 0.0, 0.0, 193.0, 0.0, 0.0, 0.0, 0.0, 0.0, 0.0, 0.0, 0.0, 0.0, 1.7641886654639835E9, 0.0, 2025-11-26 16:24:25.463
222.0, -128468.64056213386, -129590.72048553474, -128630.62365420148, -128733.39697520698, -128988.05039978628, -128594.52558690615, -128479.12353028341, -128724.6797948694, 0.0, 0.0, 0.0, 193.0, 0.0, 0.0, 0.0, 0.0, 0.0, 0.0, 0.0, 0.0, 0.0, 1.764188665468012E9, 0.0, 2025-11-26 16:24:25.468
223.0, -128466.80771908852, -129516.89267359885, -128620.58772094104, -128734.22398975183, -128960.78127155082, -128600.13587476444, -128479.88348959488, -128720.81294307864, 0.0, 0.0, 0.0, 193.0, 0.0, 0.0, 0.0, 0.0, 0.0, 0.0, 0.0, 0.0, 0.0, 1.7641886654720159E9, 0.0, 2025-11-26 16:24:25.472
224.0, -128468.70761736722, -129445.41179483078, -128624.96866285428, -128737.97908282031, -128936.14964916107, -128609.0095173132, -128483.43741696328, -128725.97619604782, 0.0, 0.0, 0.0, 193.0, 0.0, 0.0, 0.0, 0.0, 0.0, 0.0, 0.0, 0.0, 0.0, 1.7641886654759622E9, 0.0, 2025-11-26 16:24:25.475
225.0, -128467.9253063113, -129367.87359331532, -128635.7645554262, -128738.5825799206, -128904.45487552344, -128610.88706384743, -128484.1750245303, -128727.33965245959, 0.0, 0.0, 0.0, 193.0, 0.0, 0.0, 0.0, 0.0, 0.0, 0.0, 0.0, 0.0, 0.0, 1.7641886654789584E9, 0.0, 2025-11-26 16:24:25.478
226.0, -128469.2217074897, -129287.42966502067, -128636.77038392669, -128737.42028920894, -128868.98265707288, -128608.83070335755, -128484.48794895268, -128728.59135014909, 0.0, 0.0, 0.0, 193.0, 0.0, 0.0, 0.0, 0.0, 0.0, 0.0, 0.0, 0.0, 0.0, 1.764188665483148E9, 0.0, 2025-11-26 16:24:25.483
227.0, -128468.59585864496, -129212.93130075114, -128622.3088052641, -128738.24730375379, -128840.35007242562, -128613.03283131515, -128484.95733558624, -128726.62439663702, 0.0, 0.0, 0.0, 193.0, 0.0, 0.0, 0.0, 0.0, 0.0, 0.0, 0.0, 0.0, 0.0, 1.7641886654872017E9, 0.0, 2025-11-26 16:24:25.487
228.0, -128466.78536734407, -129145.29492202938, -128625.10277332102, -128741.26478925525, -128818.37830762606, -128626.44387798833, -128487.90776585434, -128733.37462346253, 0.0, 0.0, 0.0, 193.0, 0.0, 0.0, 0.0, 0.0, 0.0, 0.0, 0.0, 0.0, 0.0, 1.764188665492009E9, 0.0, 2025-11-26 16:24:25.492
229.0, -128473.04385579156, -128957.3391029047, -128670.23094537629, -128742.9858735783, -128668.46515756431, -128626.1086018215, -128495.23913803569, -128743.05292881167, 0.0, 0.0, 0.0, 193.0, 0.0, 0.0, 0.0, 0.0, 0.0, 0.0, 0.0, 0.0, 0.0, 1.764188665496024E9, 0.0, 2025-11-26 16:24:25.496
230.0, -128486.83488212049, -128735.47568744131, -128715.71674534283, -128743.90229510097, -128526.55393201756, -128626.86856113299, -128497.56371945904, -128750.00432133727, 0.0, 0.0, 0.0, 193.0, 0.0, 0.0, 0.0, 0.0, 0.0, 0.0, 0.0, 0.0, 0.0, 1.7641886655000124E9, 0.0, 2025-11-26 16:24:25.500
231.0, -128480.48698669518, -128810.91282497798, -128697.00833523374, -128741.42125146644, -128665.55943078511, -128637.73150893826, -128491.99813508966, -128747.21035328036, 0.0, 0.0, 0.0, 193.0, 0.0, 0.0, 0.0, 0.0, 0.0, 0.0, 0.0, 0.0, 0.0, 1.7641886655030236E9, 0.0, 2025-11-26 16:24:25.503
232.0, -128480.41993146182, -128924.72790774441, -128713.16864647492, -128741.01892006624, -128830.47060137638, -128654.65177949093, -128490.2770507666, -128743.61172242305, 0.0, 0.0, 0.0, 193.0, 0.0, 0.0, 0.0, 0.0, 0.0, 0.0, 0.0, 0.0, 0.0, 1.764188665507013E9, 0.0, 2025-11-26 16:24:25.507
233.0, -128481.15753902883, -129030.94339739603, -128710.35232667356, -128737.46499269785, -129002.26610925987, -128658.42922430388, -128489.4276844773, -128745.62337942403, 0.0, 0.0, 0.0, 193.0, 0.0, 0.0, 0.0, 0.0, 0.0, 0.0, 0.0, 0.0, 0.0, 1.7641886655110176E9, 0.0, 2025-11-26 16:24:25.511
234.0, -128472.574469158, -129140.1316690602, -128679.30575362513, -128730.67006238343, -129326.09818292836, -128634.5575612256, -128482.54334718507, -128736.50386768626, 0.0, 0.0, 0.0, 193.0, 0.0, 0.0, 0.0, 0.0, 0.0, 0.0, 0.0, 0.0, 0.0, 1.7641886655150485E9, 0.0, 2025-11-26 16:24:25.515
235.0, -128462.33737019746, -129284.18866207465, -128655.5682010136, -128725.35034720307, -129472.61386783289, -128597.6548311299, -128476.5754314155, -128729.35130946057, 0.0, 0.0, 0.0, 193.0, 0.0, 0.0, 0.0, 0.0, 0.0, 0.0, 0.0, 0.0, 0.0, 1.7641886655200396E9, 0.0, 2025-11-26 16:24:25.520
236.0, -128466.40538768834, -129582.76326450864, -128642.49243050725, -128729.75364086076, -129433.67712899175, -128595.41965668436, -128479.45880645023, -128731.29591122818, 0.0, 0.0, 0.0, 193.0, 0.0, 0.0, 0.0, 0.0, 0.0, 0.0, 0.0, 0.0, 0.0, 1.764188665524044E9, 0.0, 2025-11-26 16:24:25.524
237.0, -128467.4782714222, -129769.31092373264, -128630.82481990158, -128730.02186179423, -129401.31180302046, -128592.603336883, -128481.09048379547, -128726.3338239591, 0.0, 0.0, 0.0, 193.0, 0.0, 0.0, 0.0, 0.0, 0.0, 0.0, 0.0, 0.0, 0.0, 1.7641886655280616E9, 0.0, 2025-11-26 16:24:25.528
238.0, -128464.50548940964, -129699.52877754316, -128632.4117937579, -128729.0830885271, -129365.10197700287, -128595.59847064, -128480.50933843963, -128723.78572509119, 0.0, 0.0, 0.0, 193.0, 0.0, 0.0, 0.0, 0.0, 0.0, 0.0, 0.0, 0.0, 0.0, 1.7641886655311651E9, 0.0, 2025-11-26 16:24:25.531
239.0, -128465.08663476547, -129618.23548295922, -128644.63819797496, -128737.33088223111, -129330.38971786377, -128590.01053452618, -128483.95150708575, -128725.88678906999, 0.0, 0.0, 0.0, 193.0, 0.0, 0.0, 0.0, 0.0, 0.0, 0.0, 0.0, 0.0, 0.0, 1.7641886655350814E9, 0.0, 2025-11-26 16:24:25.535
240.0, -128466.29362896606, -129542.68658670028, -128622.91230236439, -128741.53301018871, -129301.75713321652, -128594.59264213953, -128484.55500418604, -128727.47376292633, 0.0, 0.0, 0.0, 193.0, 0.0, 0.0, 0.0, 0.0, 0.0, 0.0, 0.0, 0.0, 0.0, 1.76418866553908E9, 0.0, 2025-11-26 16:24:25.539
241.0, -128470.65221913485, -129472.99384748863, -128625.72862216576, -128736.81679210864, -129277.4607869936, -128604.51681667767, -128486.45490246474, -128732.30173972866, 0.0, 0.0, 0.0, 193.0, 0.0, 0.0, 0.0, 0.0, 0.0, 0.0, 0.0, 0.0, 0.0, 1.7641886655430913E9, 0.0, 2025-11-26 16:24:25.543
242.0, -128469.10994876742, -129396.05914307346, -128640.95016013982, -128737.2414752533, -129244.8048883444, -128605.14266552242, -128486.23138502019, -128728.6807571269, 0.0, 0.0, 0.0, 193.0, 0.0, 0.0, 0.0, 0.0, 0.0, 0.0, 0.0, 0.0, 0.0, 1.7641886655481713E9, 0.0, 2025-11-26 16:24:25.548
243.0, -128469.98166680118, -129316.30811885693, -128636.34570078204, -128742.136507289, -129209.86911176075, -128603.91331957739, -128486.36549548693, -128731.9888153063, 0.0, 0.0, 0.0, 193.0, 0.0, 0.0, 0.0, 0.0, 0.0, 0.0, 0.0, 0.0, 0.0, 1.7641886655521145E9, 0.0, 2025-11-26 16:24:25.552
244.0, -128472.28389648008, -129245.0507575334, -128623.47109597578, -128740.92951308841, -129184.16460563715, -128612.56344468158, -128486.79017863158, -128733.39697520698, 0.0, 0.0, 0.0, 193.0, 0.0, 0.0, 0.0, 0.0, 0.0, 0.0, 0.0, 0.0, 0.0, 1.7641886655561252E9, 0.0, 2025-11-26 16:24:25.556
245.0, -128470.76397785712, -129176.5873642668, -128627.89674137793, -128739.76722237674, -129162.25989607096, -128624.27575877617, -128490.29940251105, -128736.34740547508, 0.0, 0.0, 0.0, 193.0, 0.0, 0.0, 0.0, 0.0, 0.0, 0.0, 0.0, 0.0, 0.0, 1.7641886655601647E9, 0.0, 2025-11-26 16:24:25.560
246.0, -128468.84172783396, -129046.32139758128, -128650.87433467798, -128739.9907398213, -129131.12391604471, -128625.88508437695, -128492.93690835679, -128736.74973687527, 0.0, 0.0, 0.0, 193.0, 0.0, 0.0, 0.0, 0.0, 0.0, 0.0, 0.0, 0.0, 0.0, 1.7641886655641093E9, 0.0, 2025-11-26 16:24:25.564
247.0, -128478.20710876073, -128788.98576366733, -128673.62841053349, -128741.98004507781, -129085.90633701162, -128615.3574127385, -128493.94273685728, -128739.25313225426, 0.0, 0.0, 0.0, 193.0, 0.0, 0.0, 0.0, 0.0, 0.0, 0.0, 0.0, 0.0, 0.0, 1.7641886655671184E9, 0.0, 2025-11-26 16:24:25.567
248.0, -128478.49768143866, -128844.6639591055, -128662.13961388345, -128746.80802188016, -129036.79955444332, -128608.96481382428, -128492.55692870104, -128738.44846945387, 0.0, 0.0, 0.0, 193.0, 0.0, 0.0, 0.0, 0.0, 0.0, 0.0, 0.0, 0.0, 0.0, 1.7641886655711412E9, 0.0, 2025-11-26 16:24:25.571
249.0, -128478.09535003846, -128995.09119928972, -128660.23971560475, -128747.76914689173, -128992.58780391072, -128606.14849402291, -128493.54040545708, -128738.71669038734, 0.0, 0.0, 0.0, 193.0, 0.0, 0.0, 0.0, 0.0, 0.0, 0.0, 0.0, 0.0, 0.0, 1.7641886655761583E9, 0.0, 2025-11-26 16:24:25.576
250.0, -128479.68232389478, -129137.22594228102, -128682.45734959333, -128746.18217303541, -128939.681224785, -128620.92299710787, -128493.96508860173, -128746.51744920225, 0.0, 0.0, 0.0, 193.0, 0.0, 0.0, 0.0, 0.0, 0.0, 0.0, 0.0, 0.0, 0.0, 1.764188665580135E9, 0.0, 2025-11-26 16:24:25.580
251.0, -128477.73772212717, -129278.08663583835, -128683.28436413818, -128741.7341758888, -128880.53850895626, -128613.50221794871, -128491.30523101155, -128739.72251888782, 0.0, 0.0, 0.0, 193.0, 0.0, 0.0, 0.0, 0.0, 0.0, 0.0, 0.0, 0.0, 0.0, 1.7641886655831382E9, 0.0, 2025-11-26 16:24:25.583
252.0, -128474.40731220333, -129563.71957823272, -128652.88599167897, -128738.2920072427, -128835.38798515654, -128604.82974110005, -128490.3217542555, -128733.57578916261, 0.0, 0.0, 0.0, 193.0, 0.0, 0.0, 0.0, 0.0, 0.0, 0.0, 0.0, 0.0, 0.0, 1.7641886655872045E9, 0.0, 2025-11-26 16:24:25.587
253.0, -128474.07203603651, -129776.37407498051, -128633.88700889195, -128745.86924861303, -128789.76807472327, -128599.44297068632, -128490.58997518898, -128731.45237343936, 0.0, 0.0, 0.0, 193.0, 0.0, 0.0, 0.0, 0.0, 0.0, 0.0, 0.0, 0.0, 0.0, 1.7641886655911725E9, 0.0, 2025-11-26 16:24:25.591
254.0, -128479.54821342806, -129708.33536485856, -128669.96272444281, -128747.61268468056, -128587.64124961392, -128610.48473244725, -128495.64146943588, -128741.17538227742, 0.0, 0.0, 0.0, 193.0, 0.0, 0.0, 0.0, 0.0, 0.0, 0.0, 0.0, 0.0, 0.0, 1.7641886655952551E9, 0.0, 2025-11-26 16:24:25.595
255.0, -128478.87766109439, -129602.20928218476, -128686.90534673994, -128743.00822532276, -128580.91337453287, -128633.64113970294, -128496.80376014755, -128743.03057706721, 0.0, 0.0, 0.0, 193.0, 0.0, 0.0, 0.0, 0.0, 0.0, 0.0, 0.0, 0.0, 0.0, 1.7641886655992084E9, 0.0, 2025-11-26 16:24:25.599
0.0, -128478.85530934994, -129494.20565297671, -128683.59728856056, -128742.67294915592, -128760.33082727563, -128630.53424722365, -128496.42378049181, -128743.7905363787, 0.0, 0.0, 0.0, 193.0, 0.0, 0.0, 0.0, 0.0, 0.0, 0.0, 0.0, 0.0, 0.0, 1.7641886656041787E9, 0.0, 2025-11-26 16:24:25.604
1.0, -128476.70954188223, -129396.57323319594, -128667.52638429719, -128739.72251888782, -128967.2409256984, -128611.57996792556, -128491.14876880035, -128739.32018748764, 0.0, 0.0, 0.0, 193.0, 0.0, 0.0, 0.0, 0.0, 0.0, 0.0, 0.0, 0.0, 0.0, 1.7641886656081817E9, 0.0, 2025-11-26 16:24:25.608
2.0, -128472.3733034579, -129302.0700576389, -128649.13089861047, -128735.40863220795, -129320.80081949245, -128610.46238070278, -128489.00300133265, -128732.2793879842, 0.0, 0.0, 0.0, 193.0, 0.0, 0.0, 0.0, 0.0, 0.0, 0.0, 0.0, 0.0, 0.0, 1.7641886656122108E9, 0.0, 2025-11-26 16:24:25.612
3.0, -128469.84755633445, -129215.3452891523, -128654.115337624, -128736.12388803053, -129505.00154554863, -128598.39243869692, -128486.70077165375, -128729.86539958304, 0.0, 0.0, 0.0, 193.0, 0.0, 0.0, 0.0, 0.0, 0.0, 0.0, 0.0, 0.0, 0.0, 1.7641886656152377E9, 0.0, 2025-11-26 16:24:25.615
4.0, -128464.66195162082, -129136.39892773617, -128633.28351179165, -128736.86149559755, -129476.77129230158, -128595.19613923981, -128486.32079199802, -128728.25607398225, 0.0, 0.0, 0.0, 193.0, 0.0, 0.0, 0.0, 0.0, 0.0, 0.0, 0.0, 0.0, 0.0, 1.7641886656192276E9, 0.0, 2025-11-26 16:24:25.619
5.0, -128465.13133825439, -128984.20589973997, -128629.08138383405, -128738.76139387625, -129451.96085595619, -128600.96288930929, -128490.0758850665, -128732.94994031788, 0.0, 0.0, 0.0, 193.0, 0.0, 0.0, 0.0, 0.0, 0.0, 0.0, 0.0, 0.0, 0.0, 1.764188665623214E9, 0.0, 2025-11-26 16:24:25.623
6.0, -128478.67649539429, -128765.27056280024, -128667.14640464145, -128742.7847078782, -129414.67814620474, -128604.24859574421, -128493.51805371263, -128737.30853048665, 0.0, 0.0, 0.0, 193.0, 0.0, 0.0, 0.0, 0.0, 0.0, 0.0, 0.0, 0.0, 0.0, 1.7641886656272397E9, 0.0, 2025-11-26 16:24:25.627
7.0, -128482.00690531814, -128848.2178864739, -128681.92090772641, -128746.22687652432, -129356.00481700955, -128628.03085184465, -128492.69103916778, -128742.18121077791, 0.0, 0.0, 0.0, 193.0, 0.0, 0.0, 0.0, 0.0, 0.0, 0.0, 0.0, 0.0, 0.0, 1.764188665631234E9, 0.0, 2025-11-26 16:24:25.631
8.0, -128476.86600409342, -128986.35166720768, -128661.73728248326, -128741.42125146644, -129298.38201980377, -128615.49152320523, -128489.51709145513, -128736.45916419735, 0.0, 0.0, 0.0, 193.0, 0.0, 0.0, 0.0, 0.0, 0.0, 0.0, 0.0, 0.0, 0.0, 1.76418866563625E9, 0.0, 2025-11-26 16:24:25.636
9.0, -128475.63665814837, -129135.50485795795, -128655.61290450252, -128743.96935033434, -129251.68922563664, -128604.2038922553, -128489.40533273284, -128735.29687348568, 0.0, 0.0, 0.0, 193.0, 0.0, 0.0, 0.0, 0.0, 0.0, 0.0, 0.0, 0.0, 0.0, 1.7641886656392581E9, 0.0, 2025-11-26 16:24:25.639
10.0, -128475.61430640392, -129291.14005460026, -128665.38061682948, -128739.92368458792, -129205.17524542514, -128608.85305510201, -128489.4276844773, -128738.56022817615, 0.0, 0.0, 0.0, 193.0, 0.0, 0.0, 0.0, 0.0, 0.0, 0.0, 0.0, 0.0, 0.0, 1.7641886656432552E9, 0.0, 2025-11-26 16:24:25.643
11.0, -128475.01080930363, -129578.00234293967, -128659.45740454883, -128737.44264095339, -129153.67682620011, -128609.0542208021, -128489.98647808869, -128736.97325431983, 0.0, 0.0, 0.0, 193.0, 0.0, 0.0, 0.0, 0.0, 0.0, 0.0, 0.0, 0.0, 0.0, 1.7641886656472757E9, 0.0, 2025-11-26 16:24:25.647
12.0, -128472.28389648008, -129768.21568825433, -128645.15228809742, -128738.5825799206, -129112.48256116899, -128598.45949393029, -128488.28774551008, -128728.72546061582, 0.0, 0.0, 0.0, 193.0, 0.0, 0.0, 0.0, 0.0, 0.0, 0.0, 0.0, 0.0, 0.0, 1.7641886656512704E9, 0.0, 2025-11-26 16:24:25.651
13.0, -128473.28972498057, -129706.86014972451, -128621.7053081638, -128742.71765264485, -129085.54870910035, -128604.31565097757, -128486.96899258722, -128730.9382833169, 0.0, 0.0, 0.0, 193.0, 0.0, 0.0, 0.0, 0.0, 0.0, 0.0, 0.0, 0.0, 0.0, 1.7641886656553264E9, 0.0, 2025-11-26 16:24:25.655
14.0, -128474.07203603651, -129635.66984363436, -128627.85203788902, -128741.26478925525, -129062.68287452256, -128610.75295338071, -128490.36645774443, -128734.51456242974, 0.0, 0.0, 0.0, 193.0, 0.0, 0.0, 0.0, 0.0, 0.0, 0.0, 0.0, 0.0, 0.0, 1.7641886656593287E9, 0.0, 2025-11-26 16:24:25.659
15.0, -128476.10604478193, -129557.14816536286, -128648.39329104344, -128742.62824566702, -129031.01045262939, -128612.42933421486, -128490.76878914463, -128734.69337638539, 0.0, 0.0, 0.0, 193.0, 0.0, 0.0, 0.0, 0.0, 0.0, 0.0, 0.0, 0.0, 0.0, 1.764188665664288E9, 0.0, 2025-11-26 16:24:25.664
16.0, -128475.56960291501, -129473.84321377793, -128647.83449743206, -128742.65059741147, -128992.65485914408, -128607.1543225234, -128490.09823681095, -128740.48247819931, 0.0, 0.0, 0.0, 193.0, 0.0, 0.0, 0.0, 0.0, 0.0, 0.0, 0.0, 0.0, 0.0, 1.7641886656673052E9, 0.0, 2025-11-26 16:24:25.667
17.0, -128476.50837618213, -129399.9930500976, -128622.26410177519, -128741.57771367762, -128964.13403321912, -128612.09405804802, -128490.99230658918, -128736.79444036419, 0.0, 0.0, 0.0, 193.0, 0.0, 0.0, 0.0, 0.0, 0.0, 0.0, 0.0, 0.0, 0.0, 1.7641886656713123E9, 0.0, 2025-11-26 16:24:25.671
18.0, -128478.90001283886, -129331.19438066416, -128637.10566009351, -128744.2375712678, -128942.27402714182, -128623.33698550904, -128493.51805371263, -128740.72834738831, 0.0, 0.0, 0.0, 193.0, 0.0, 0.0, 0.0, 0.0, 0.0, 0.0, 0.0, 0.0, 0.0, 1.764188665675312E9, 0.0, 2025-11-26 16:24:25.675
19.0, -128482.56569892952, -129254.10321403781, -128654.78588995767, -128748.66321666996, -128910.86982618211, -128624.611034943, -128499.7318386712, -128745.39986197947, 0.0, 0.0, 0.0, 193.0, 0.0, 0.0, 0.0, 0.0, 0.0, 0.0, 0.0, 0.0, 0.0, 1.7641886656793249E9, 0.0, 2025-11-26 16:24:25.679
20.0, -128478.74355062767, -129175.1345008772, -128639.65375896142, -128745.73513814631, -128877.58807868816, -128623.22522678677, -128497.56371945904, -128742.89646660048, 0.0, 0.0, 0.0, 193.0, 0.0, 0.0, 0.0, 0.0, 0.0, 0.0, 0.0, 0.0, 0.0, 1.764188665683365E9, 0.0, 2025-11-26 16:24:25.683
21.0, -128474.8766988369, -129051.99874067292, -128637.17271532687, -128744.75166139027, -128849.58134288566, -128628.16496231139, -128497.40725724785, -128740.90716134396, 0.0, 0.0, 0.0, 193.0, 0.0, 0.0, 0.0, 0.0, 0.0, 0.0, 0.0, 0.0, 0.0, 1.7641886656873925E9, 0.0, 2025-11-26 16:24:25.687
22.0, -128488.86889086592, -128801.14511265101, -128675.34949485655, -128748.32794050312, -128759.99555110879, -128629.57312221208, -128501.83290265, -128748.01501608075, 0.0, 0.0, 0.0, 193.0, 0.0, 0.0, 0.0, 0.0, 0.0, 0.0, 0.0, 0.0, 0.0, 1.7641886656923385E9, 0.0, 2025-11-26 16:24:25.692
23.0, -128497.29549852556, -128832.07992697715, -128725.26094022524, -128754.29585627269, -128543.65301652587, -128638.69263394985, -128504.1798358178, -128758.11800457454, 0.0, 0.0, 0.0, 193.0, 0.0, 0.0, 0.0, 0.0, 0.0, 0.0, 0.0, 0.0, 0.0, 1.7641886656953444E9, 0.0, 2025-11-26 16:24:25.695
24.0, -128496.53553921409, -128935.59085554969, -128734.82748685211, -128753.37943475002, -128616.56440693908, -128669.13570989796, -128503.55398697306, -128758.76620516375, 0.0, 0.0, 0.0, 193.0, 0.0, 0.0, 0.0, 0.0, 0.0, 0.0, 0.0, 0.0, 0.0, 1.764188665698364E9, 0.0, 2025-11-26 16:24:25.698
25.0, -128488.3771524879, -129043.21450510199, -128707.46895163882, -128748.4396992254, -128773.45130127089, -128656.10464288053, -128500.44709449376, -128751.77010914923, 0.0, 0.0, 0.0, 193.0, 0.0, 0.0, 0.0, 0.0, 0.0, 0.0, 0.0, 0.0, 0.0, 1.764188665703365E9, 0.0, 2025-11-26 16:24:25.703
26.0, -128486.11962629792, -129158.81772742483, -128713.97330927532, -128746.80802188016, -128942.25167539736, -128647.94625615433, -128496.6249461919, -128748.30558875867, 0.0, 0.0, 0.0, 193.0, 0.0, 0.0, 0.0, 0.0, 0.0, 0.0, 0.0, 0.0, 0.0, 1.7641886657073753E9, 0.0, 2025-11-26 16:24:25.707
27.0, -128485.40437047534, -129276.63377244875, -128700.15993120194, -128742.5388386892, -129220.66500433267, -128651.76840445619, -128493.94273685728, -128747.88090561402, 0.0, 0.0, 0.0, 193.0, 0.0, 0.0, 0.0, 0.0, 0.0, 0.0, 0.0, 0.0, 0.0, 1.7641886657113583E9, 0.0, 2025-11-26 16:24:25.711
28.0, -128475.86017559293, -129517.98790907717, -128673.20372738884, -128736.6826816419, -129483.812091805, -128625.95213961032, -128490.81349263353, -128739.56605667665, 0.0, 0.0, 0.0, 193.0, 0.0, 0.0, 0.0, 0.0, 0.0, 0.0, 0.0, 0.0, 0.0, 1.7641886657153893E9, 0.0, 2025-11-26 16:24:25.715
29.0, -128473.1779662583, -129761.06313002863, -128645.15228809742, -128738.62728340951, -129469.73049279816, -128602.99689805471, -128488.80183563255, -128730.40184144996, 0.0, 0.0, 0.0, 193.0, 0.0, 0.0, 0.0, 0.0, 0.0, 0.0, 0.0, 0.0, 0.0, 1.764188665718387E9, 0.0, 2025-11-26 16:24:25.718
30.0, -128473.8261668475, -129717.49958008523, -128624.52162796518, -128749.4902312148, -129443.35543434089, -128603.64509864392, -128484.66676290832, -128726.64674838148, 0.0, 0.0, 0.0, 193.0, 0.0, 0.0, 0.0, 0.0, 0.0, 0.0, 0.0, 0.0, 0.0, 1.764188665722422E9, 0.0, 2025-11-26 16:24:25.722
31.0, -128472.64152439137, -129645.9516460838, -128632.2106280578, -128742.40472822246, -129419.08143986244, -128613.18929352633, -128488.24304202117, -128731.54178041719, 0.0, 0.0, 0.0, 193.0, 0.0, 0.0, 0.0, 0.0, 0.0, 0.0, 0.0, 0.0, 0.0, 1.7641886657264235E9, 0.0, 2025-11-26 16:24:25.726
32.0, -128473.26737323611, -129563.831336955, -128644.48173576377, -128738.02378630922, -129382.44693070019, -128610.79765686962, -128491.19347228928, -128735.74390837479, 0.0, 0.0, 0.0, 193.0, 0.0, 0.0, 0.0, 0.0, 0.0, 0.0, 0.0, 0.0, 0.0, 1.7641886657314236E9, 0.0, 2025-11-26 16:24:25.731
33.0, -128473.26737323611, -129485.01908600559, -128645.30875030861, -128740.41542296595, -129348.2264099391, -128610.44002895833, -128491.50639671164, -128733.84401009609, 0.0, 0.0, 0.0, 193.0, 0.0, 0.0, 0.0, 0.0, 0.0, 0.0, 0.0, 0.0, 0.0, 1.7641886657354028E9, 0.0, 2025-11-26 16:24:25.735
34.0, -128473.73675986967, -129413.18057932623, -128627.91909312239, -128742.62824566702, -129321.51607531501, -128617.88315986194, -128491.26052752264, -128731.85470483956, 0.0, 0.0, 0.0, 193.0, 0.0, 0.0, 0.0, 0.0, 0.0, 0.0, 0.0, 0.0, 0.0, 1.764188665739464E9, 0.0, 2025-11-26 16:24:25.739
35.0, -128475.63665814837, -129344.49366861508, -128633.39527051394, -128745.13164104601, -129298.89610992625, -128628.32142452258, -128492.24400427866, -128735.07335604113, 0.0, 0.0, 0.0, 193.0, 0.0, 0.0, 0.0, 0.0, 0.0, 0.0, 0.0, 0.0, 0.0, 1.7641886657434354E9, 0.0, 2025-11-26 16:24:25.743
36.0, -128478.58708841648, -129265.39084498773, -128658.13865162595, -128747.21035328036, -129264.78734788745, -128628.12025882248, -128495.23913803569, -128741.71182414435, 0.0, 0.0, 0.0, 193.0, 0.0, 0.0, 0.0, 0.0, 0.0, 0.0, 0.0, 0.0, 0.0, 1.7641886657464645E9, 0.0, 2025-11-26 16:24:25.746
37.0, -128477.6259634049, -129183.8963847037, -128644.50408750822, -128748.37264399203, -129228.06343174737, -128624.4545727318, -128495.46265548024, -128738.80609736516, 0.0, 0.0, 0.0, 193.0, 0.0, 0.0, 0.0, 0.0, 0.0, 0.0, 0.0, 0.0, 0.0, 1.7641886657504776E9, 0.0, 2025-11-26 16:24:25.750
38.0, -128473.28972498057, -129095.87521503869, -128632.07651759106, -128752.79828939418, -129202.35892562378, -128632.23297980225, -128495.79793164706, -128739.29783574317, 0.0, 0.0, 0.0, 193.0, 0.0, 0.0, 0.0, 0.0, 0.0, 0.0, 0.0, 0.0, 0.0, 1.764188665754481E9, 0.0, 2025-11-26 16:24:25.754
39.0, -128483.05743730754, -128850.34130219715, -128658.74214872625, -128756.30751327367, -129173.21225085405, -128637.30682579361, -128498.99423110417, -128744.0364055677, 0.0, 0.0, 0.0, 193.0, 0.0, 0.0, 0.0, 0.0, 0.0, 0.0, 0.0, 0.0, 0.0, 1.764188665758461E9, 0.0, 2025-11-26 16:24:25.758
40.0, -128487.7289518987, -128804.9002057195, -128684.55841357213, -128750.31724575964, -129123.94900607456, -128624.05224133162, -128502.078771839, -128749.4902312148, 0.0, 0.0, 0.0, 193.0, 0.0, 0.0, 0.0, 0.0, 0.0, 0.0, 0.0, 0.0, 0.0, 1.7641886657634952E9, 0.0, 2025-11-26 16:24:25.763
41.0, -128486.18668153128, -128941.04468119678, -128693.3202973986, -128751.50188821577, -129067.0638164358, -128615.46917146078, -128501.94466137227, -128751.16661204895, 0.0, 0.0, 0.0, 193.0, 0.0, 0.0, 0.0, 0.0, 0.0, 0.0, 0.0, 0.0, 0.0, 1.7641886657674873E9, 0.0, 2025-11-26 16:24:25.767
42.0, -128484.28678325258, -129085.70517131152, -128680.15511991443, -128747.88090561402, -129016.92885362255, -128618.21843602878, -128500.55885321605, -128744.99753057928, 0.0, 0.0, 0.0, 193.0, 0.0, 0.0, 0.0, 0.0, 0.0, 0.0, 0.0, 0.0, 0.0, 1.764188665771489E9, 0.0, 2025-11-26 16:24:25.771
43.0, -128485.6278879199, -129237.11588825178, -128671.21442213231, -128750.42900448192, -128972.7394548344, -128620.6100726855, -128500.60355670495, -128743.45526021186, 0.0, 0.0, 0.0, 193.0, 0.0, 0.0, 0.0, 0.0, 0.0, 0.0, 0.0, 0.0, 0.0, 1.764188665774496E9, 0.0, 2025-11-26 16:24:25.774
44.0, -128485.44907396425, -129449.9491989552, -128681.36211411502, -128752.66417892746, -128921.08457339818, -128625.14747680993, -128502.6375654504, -128749.15495504797, 0.0, 0.0, 0.0, 193.0, 0.0, 0.0, 0.0, 0.0, 0.0, 0.0, 0.0, 0.0, 0.0, 1.7641886657785127E9, 0.0, 2025-11-26 16:24:25.778
45.0, -128481.20224251774, -129747.54032463317, -128653.19891610133, -128749.78080389272, -128873.09537805265, -128619.358374996, -128496.40142874735, -128743.67877765642, 0.0, 0.0, 0.0, 193.0, 0.0, 0.0, 0.0, 0.0, 0.0, 0.0, 0.0, 0.0, 0.0, 1.764188665782518E9, 0.0, 2025-11-26 16:24:25.782
46.0, -128477.87183259391, -129738.59962685105, -128635.45163100382, -128748.26088526976, -128843.412261416, -128611.73643013673, -128493.29453626806, -128739.56605667665, 0.0, 0.0, 0.0, 193.0, 0.0, 0.0, 0.0, 0.0, 0.0, 0.0, 0.0, 0.0, 0.0, 1.7641886657865162E9, 0.0, 2025-11-26 16:24:25.786
47.0, -128479.27999249459, -129668.95159112831, -128636.90449439341, -128751.74775740478, -128808.2082638989, -128620.14068605193, -128495.61911769141, -128737.62145490904, 0.0, 0.0, 0.0, 193.0, 0.0, 0.0, 0.0, 0.0, 0.0, 0.0, 0.0, 0.0, 0.0, 1.764188665791541E9, 0.0, 2025-11-26 16:24:25.791
48.0, -128484.39854197485, -129586.74187502169, -128670.05213142064, -128752.30655101617, -128614.32923249356, -128620.45361047432, -128500.89412938287, -128745.8916003575, 0.0, 0.0, 0.0, 193.0, 0.0, 0.0, 0.0, 0.0, 0.0, 0.0, 0.0, 0.0, 0.0, 1.7641886657955601E9, 0.0, 2025-11-26 16:24:25.795
49.0, -128488.7794838881, -129480.83930979244, -128708.74300107277, -128754.47467022833, -128586.70247634679, -128630.28837803465, -128502.52580672811, -128753.33473126111, 0.0, 0.0, 0.0, 193.0, 0.0, 0.0, 0.0, 0.0, 0.0, 0.0, 0.0, 0.0, 0.0, 1.7641886657995594E9, 0.0, 2025-11-26 16:24:25.799
50.0, -128488.35480074344, -129373.21566024014, -128683.32906762708, -128750.56311494866, -128765.18115582243, -128638.02208161619, -128502.50345498366, -128749.89256261499, 0.0, 0.0, 0.0, 193.0, 0.0, 0.0, 0.0, 0.0, 0.0, 0.0, 0.0, 0.0, 0.0, 1.7641886658025808E9, 0.0, 2025-11-26 16:24:25.802
51.0, -128484.7785216306, -129275.9632201151, -128681.60798330403, -128745.95865559086, -128970.05724549977, -128624.43222098735, -128501.81055090555, -128746.7409666468, 0.0, 0.0, 0.0, 193.0, 0.0, 0.0, 0.0, 0.0, 0.0, 0.0, 0.0, 0.0, 0.0, 1.7641886658066063E9, 0.0, 2025-11-26 16:24:25.806
52.0, -128480.3752279729, -129181.16947188014, -128676.73530301277, -128748.99849283678, -129322.05251718195, -128617.57023543958, -128500.5365014716, -128745.0422340682, 0.0, 0.0, 0.0, 193.0, 0.0, 0.0, 0.0, 0.0, 0.0, 0.0, 0.0, 0.0, 0.0, 1.7641886658105652E9, 0.0, 2025-11-26 16:24:25.810
53.0, -128473.31207672502, -129034.13969685313, -128655.97053241379, -128751.83716438261, -129517.04913581004, -128614.77626738267, -128497.85429213695, -128742.06945205564, 0.0, 0.0, 0.0, 193.0, 0.0, 0.0, 0.0, 0.0, 0.0, 0.0, 0.0, 0.0, 0.0, 1.7641886658165743E9, 0.0, 2025-11-26 16:24:25.816
54.0, -128483.25860300763, -128783.73310372033, -128665.5147272962, -128750.18313529291, -129480.23581269215, -128609.54595918012, -128496.02144909161, -128740.21425726585, 0.0, 0.0, 0.0, 193.0, 0.0, 0.0, 0.0, 0.0, 0.0, 0.0, 0.0, 0.0, 0.0, 1.764188665819662E9, 0.0, 2025-11-26 16:24:25.819
55.0, -128485.04674256407, -128855.01281678831, -128669.9180209539, -128751.27837077122, -129435.84524820391, -128614.82097087157, -128497.8766438814, -128742.11415554455, 0.0, 0.0, 0.0, 193.0, 0.0, 0.0, 0.0, 0.0, 0.0, 0.0, 0.0, 0.0, 0.0, 1.7641886658236609E9, 0.0, 2025-11-26 16:24:25.823
56.0, -128486.7231233982, -129002.62373717115, -128682.05501819313, -128751.65835042697, -129386.3361342354, -128622.7111366643, -128499.79889390456, -128746.02571082422, 0.0, 0.0, 0.0, 193.0, 0.0, 0.0, 0.0, 0.0, 0.0, 0.0, 0.0, 0.0, 0.0, 1.764188665827639E9, 0.0, 2025-11-26 16:24:25.827
57.0, -128485.0243908196, -129139.0811370708, -128680.8256722481, -128749.15495504797, -129328.60157830735, -128630.62365420148, -128500.3800392604, -128745.2433997683, 0.0, 0.0, 0.0, 193.0, 0.0, 0.0, 0.0, 0.0, 0.0, 0.0, 0.0, 0.0, 0.0, 1.7641886658306804E9, 0.0, 2025-11-26 16:24:25.830
58.0, -128481.38105647339, -129280.99236261754, -128675.88593672347, -128746.76331839125, -129271.60462994632, -128617.07849706156, -128497.85429213695, -128739.9907398213, 0.0, 0.0, 0.0, 193.0, 0.0, 0.0, 0.0, 0.0, 0.0, 0.0, 0.0, 0.0, 0.0, 1.7641886658346317E9, 0.0, 2025-11-26 16:24:25.834
59.0, -128479.30234423904, -129568.30168584606, -128647.49922126523, -128745.62337942403, -129227.68345209163, -128608.96481382428, -128495.01562059113, -128737.84497235359, 0.0, 0.0, 0.0, 193.0, 0.0, 0.0, 0.0, 0.0, 0.0, 0.0, 0.0, 0.0, 0.0, 1.7641886658386312E9, 0.0, 2025-11-26 16:24:25.838
60.0, -128477.24598374916, -129782.52080470572, -128635.98807287075, -128747.72444340283, -129200.43667560062, -128605.27677598916, -128494.6803444243, -128740.0354433102, 0.0, 0.0, 0.0, 193.0, 0.0, 0.0, 0.0, 0.0, 0.0, 0.0, 0.0, 0.0, 0.0, 1.7641886658426394E9, 0.0, 2025-11-26 16:24:25.842
61.0, -128478.05064654956, -129719.89121674195, -128643.23003807427, -128744.52814394572, -129167.51255601794, -128604.87444458896, -128493.51805371263, -128741.22008576634, 0.0, 0.0, 0.0, 193.0, 0.0, 0.0, 0.0, 0.0, 0.0, 0.0, 0.0, 0.0, 0.0, 1.7641886658466825E9, 0.0, 2025-11-26 16:24:25.846
62.0, -128479.77173087261, -129638.19559075781, -128650.47200327778, -128743.27644625622, -129132.28620675638, -128602.3039939766, -128496.53553921409, -128738.35906247605, 0.0, 0.0, 0.0, 193.0, 0.0, 0.0, 0.0, 0.0, 0.0, 0.0, 0.0, 0.0, 0.0, 1.7641886658516488E9, 0.0, 2025-11-26 16:24:25.851
63.0, -128483.50447219664, -129561.75262472066, -128646.00165438672, -128747.03153932471, -129102.69249709757, -128605.70145913381, -128498.21192004824, -128743.1870392784, 0.0, 0.0, 0.0, 193.0, 0.0, 0.0, 0.0, 0.0, 0.0, 0.0, 0.0, 0.0, 0.0, 1.7641886658546903E9, 0.0, 2025-11-26 16:24:25.854
64.0, -128483.54917568555, -129489.6682488523, -128638.89379964994, -128750.71957715983, -129077.54678458534, -128614.3068807491, -128499.50832122665, -128741.39889972197, 0.0, 0.0, 0.0, 193.0, 0.0, 0.0, 0.0, 0.0, 0.0, 0.0, 0.0, 0.0, 0.0, 1.7641886658586621E9, 0.0, 2025-11-26 16:24:25.858
65.0, -128484.39854197485, -129415.08047760493, -128652.17073585639, -128748.66321666996, -129047.64015050414, -128617.74904939522, -128500.8270741495, -128744.14816428997, 0.0, 0.0, 0.0, 193.0, 0.0, 0.0, 0.0, 0.0, 0.0, 0.0, 0.0, 0.0, 0.0, 1.7641886658626976E9, 0.0, 2025-11-26 16:24:25.862
66.0, -128485.31496349753, -129334.56949407692, -128654.71883472429, -128748.66321666996, -129010.91623436406, -128613.99395632673, -128502.4811032392, -128746.36098699106, 0.0, 0.0, 0.0, 193.0, 0.0, 0.0, 0.0, 0.0, 0.0, 0.0, 0.0, 0.0, 0.0, 1.7641886658668957E9, 0.0, 2025-11-26 16:24:25.866
67.0, -128486.16432978683, -129260.98755133005, -128639.83257291706, -128749.2890655147, -128983.02125728385, -128619.11250580699, -128501.54232997207, -128744.30462650117, 0.0, 0.0, 0.0, 193.0, 0.0, 0.0, 0.0, 0.0, 0.0, 0.0, 0.0, 0.0, 0.0, 1.7641886658706913E9, 0.0, 2025-11-26 16:24:25.870
68.0, -128485.27026000862, -129194.75933250897, -128638.4691165053, -128753.44648998338, -128963.91051577457, -128633.03764260265, -128503.21871080622, -128745.73513814631, 0.0, 0.0, 0.0, 193.0, 0.0, 0.0, 0.0, 0.0, 0.0, 0.0, 0.0, 0.0, 0.0, 1.7641886658747122E9, 0.0, 2025-11-26 16:24:25.874
69.0, -128485.31496349753, -129083.40294163264, -128665.73824474076, -128756.70984467387, -128934.49562007138, -128636.07747984857, -128509.16427483133, -128754.89935337298, 0.0, 0.0, 0.0, 193.0, 0.0, 0.0, 0.0, 0.0, 0.0, 0.0, 0.0, 0.0, 0.0, 1.7641886658797028E9, 0.0, 2025-11-26 16:24:25.879
70.0, -128493.76392290163, -128816.83603725863, -128690.88395725298, -128759.81673715315, -128890.41798000551, -128623.64990993142, -128509.36544053143, -128757.0898243296, 0.0, 0.0, 0.0, 193.0, 0.0, 0.0, 0.0, 0.0, 0.0, 0.0, 0.0, 0.0, 0.0, 1.7641886658837335E9, 0.0, 2025-11-26 16:24:25.883
71.0, -128491.05936182254, -128837.89138053554, -128674.94716345635, -128755.50285047328, -128838.91956078049, -128610.41767721387, -128506.72793468571, -128753.69235917239, 0.0, 0.0, 0.0, 193.0, 0.0, 0.0, 0.0, 0.0, 0.0, 0.0, 0.0, 0.0, 0.0, 1.764188665887728E9, 0.0, 2025-11-26 16:24:25.887
72.0, -128496.87081538091, -128982.194242739, -128701.94807075836, -128758.87796388603, -128654.3165033241, -128640.97251188428, -128510.72889694321, -128757.26863828524, 0.0, 0.0, 0.0, 193.0, 0.0, 0.0, 0.0, 0.0, 0.0, 0.0, 0.0, 0.0, 0.0, 1.7641886658907316E9, 0.0, 2025-11-26 16:24:25.890
73.0, -128501.85525439445, -129099.51854938491, -128728.34548096008, -128760.39788250899, -128537.4392315673, -128676.26591637921, -128512.42762952182, -128766.87988840103, 0.0, 0.0, 0.0, 193.0, 0.0, 0.0, 0.0, 0.0, 0.0, 0.0, 0.0, 0.0, 0.0, 1.7641886658957417E9, 0.0, 2025-11-26 16:24:25.895
74.0, -128498.52484447061, -129204.66115530267, -128731.60883565055, -128755.23462953982, -128676.73530301277, -128678.76931175821, -128507.86787365293, -128760.26377204225, 0.0, 0.0, 0.0, 193.0, 0.0, 0.0, 0.0, 0.0, 0.0, 0.0, 0.0, 0.0, 0.0, 1.764188665900735E9, 0.0, 2025-11-26 16:24:25.900
75.0, -128492.40046648985, -129319.3703078473, -128717.81780932163, -128751.50188821577, -128836.72908982386, -128664.91123019591, -128502.72697242821, -128754.22880103932, 0.0, 0.0, 0.0, 193.0, 0.0, 0.0, 0.0, 0.0, 0.0, 0.0, 0.0, 0.0, 0.0, 1.7641886659037511E9, 0.0, 2025-11-26 16:24:25.903
76.0, -128491.55110020055, -129577.71177026174, -128697.38831488948, -128750.22783878182, -129037.96184515499, -128650.60611374452, -128500.73766717169, -128752.91004811646, 0.0, 0.0, 0.0, 193.0, 0.0, 0.0, 0.0, 0.0, 0.0, 0.0, 0.0, 0.0, 0.0, 1.7641886659079435E9, 0.0, 2025-11-26 16:24:25.907
77.0, -128485.00203907515, -129767.54513592066, -128665.44767206284, -128750.09372831509, -129402.78701815451, -128620.07363081857, -128498.6813066818, -128744.90812360146, 0.0, 0.0, 0.0, 193.0, 0.0, 0.0, 0.0, 0.0, 0.0, 0.0, 0.0, 0.0, 0.0, 1.764188665910781E9, 0.0, 2025-11-26 16:24:25.910
78.0, -128479.54821342806, -129698.54530078714, -128650.36024455552, -128752.01597833826, -129510.61183340692, -128602.39340095442, -128494.63564093539, -128740.50482994376, 0.0, 0.0, 0.0, 193.0, 0.0, 0.0, 0.0, 0.0, 0.0, 0.0, 0.0, 0.0, 0.0, 1.764188665914771E9, 0.0, 2025-11-26 16:24:25.914
79.0, -128481.06813205102, -129618.86133180397, -128639.1620205834, -128744.99753057928, -129476.27955392357, -128598.7500666082, -128494.94856535776, -128739.94603633239, 0.0, 0.0, 0.0, 193.0, 0.0, 0.0, 0.0, 0.0, 0.0, 0.0, 0.0, 0.0, 0.0, 1.7641886659187796E9, 0.0, 2025-11-26 16:24:25.918
80.0, -128480.06230355053, -129546.64284546887, -128641.50895375121, -128748.2385335253, -129449.59157104393, -128606.52847367866, -128496.02144909161, -128738.18024852041, 0.0, 0.0, 0.0, 193.0, 0.0, 0.0, 0.0, 0.0, 0.0, 0.0, 0.0, 0.0, 0.0, 1.7641886659227831E9, 0.0, 2025-11-26 16:24:25.922
81.0, -128486.11962629792, -129475.76546380109, -128634.33404378105, -128749.87021087053, -129424.91524516526, -128616.16207553889, -128499.03893459309, -128740.08014679911, 0.0, 0.0, 0.0, 193.0, 0.0, 0.0, 0.0, 0.0, 0.0, 0.0, 0.0, 0.0, 0.0, 1.7641886659270515E9, 0.0, 2025-11-26 16:24:25.927
82.0, -128484.44324546377, -129395.45564597317, -128659.8150324601, -128746.80802188016, -129390.31474474845, -128614.99978482722, -128501.09529508297, -128746.80802188016, 0.0, 0.0, 0.0, 193.0, 0.0, 0.0, 0.0, 0.0, 0.0, 0.0, 0.0, 0.0, 0.0, 1.7641886659307942E9, 0.0, 2025-11-26 16:24:25.930
83.0, -128481.4257599623, -129317.29159561296, -128650.18143059987, -128747.90325735847, -129356.51890713203, -128614.97743308276, -128500.40239100486, -128740.70599564386, 0.0, 0.0, 0.0, 193.0, 0.0, 0.0, 0.0, 0.0, 0.0, 0.0, 0.0, 0.0, 0.0, 1.7641886659358215E9, 0.0, 2025-11-26 16:24:25.935
84.0, -128483.28095475209, -129247.7553186125, -128637.10566009351, -128758.47563248583, -129331.7308225311, -128624.49927622073, -128501.65408869435, -128740.37071947704, 0.0, 0.0, 0.0, 193.0, 0.0, 0.0, 0.0, 0.0, 0.0, 0.0, 0.0, 0.0, 0.0, 1.7641886659387856E9, 0.0, 2025-11-26 16:24:25.938
85.0, -128485.96316408673, -129178.37550382323, -128643.81118343011, -128760.12966157553, -129308.84263620885, -128634.66931994789, -128504.22453930671, -128745.66808291295, 0.0, 0.0, 0.0, 193.0, 0.0, 0.0, 0.0, 0.0, 0.0, 0.0, 0.0, 0.0, 0.0, 1.7641886659427779E9, 0.0, 2025-11-26 16:24:25.942
86.0, -128482.61040241843, -129035.07847012025, -128672.30965761062, -128757.46980398534, -129273.41512124719, -128633.2164565583, -128506.92910038581, -128753.33473126111, 0.0, 0.0, 0.0, 193.0, 0.0, 0.0, 0.0, 0.0, 0.0, 0.0, 0.0, 0.0, 0.0, 1.7641886659467828E9, 0.0, 2025-11-26 16:24:25.946
87.0, -128493.4733502237, -128784.40365605398, -128676.91411696842, -128759.03442609722, -129225.53768462392, -128619.02309882917, -128507.75611493066, -128754.29585627269, 0.0, 0.0, 0.0, 193.0, 0.0, 0.0, 0.0, 0.0, 0.0, 0.0, 0.0, 0.0, 0.0, 1.764188665950812E9, 0.0, 2025-11-26 16:24:25.950
88.0, -128494.30036476855, -128856.80095634473, -128679.26105013622, -128760.42023425344, -129178.15198637868, -128619.69365116283, -128507.04085910808, -128753.46884172784, 0.0, 0.0, 0.0, 193.0, 0.0, 0.0, 0.0, 0.0, 0.0, 0.0, 0.0, 0.0, 0.0, 1.764188665954814E9, 0.0, 2025-11-26 16:24:25.954
89.0, -128495.41795199132, -129008.949280852, -128674.41072158942, -128760.39788250899, -129135.12487830222, -128623.29228202013, -128507.19732131927, -128753.08886207211, 0.0, 0.0, 0.0, 193.0, 0.0, 0.0, 0.0, 0.0, 0.0, 0.0, 0.0, 0.0, 0.0, 1.764188665958814E9, 0.0, 2025-11-26 16:24:25.958
90.0, -128497.72018167021, -129153.3862535222, -128702.10453296955, -128757.73802491881, -129083.93938349956, -128642.55948574061, -128508.11374284193, -128757.24628654079, 0.0, 0.0, 0.0, 193.0, 0.0, 0.0, 0.0, 0.0, 0.0, 0.0, 0.0, 0.0, 0.0, 1.7641886659638512E9, 0.0, 2025-11-26 16:24:25.963
91.0, -128495.5297107136, -129292.45880752311, -128702.84214053657, -128758.25211504128, -129023.72378393696, -128642.2689130627, -128506.34795502997, -128758.63209469702, 0.0, 0.0, 0.0, 193.0, 0.0, 0.0, 0.0, 0.0, 0.0, 0.0, 0.0, 0.0, 0.0, 1.7641886659668922E9, 0.0, 2025-11-26 16:24:25.966
92.0, -128489.15946354384, -129580.86336622994, -128655.59055275805, -128757.76037666327, -128979.53438514881, -128622.48761921974, -128504.69392594027, -128747.12094630253, 0.0, 0.0, 0.0, 193.0, 0.0, 0.0, 0.0, 0.0, 0.0, 0.0, 0.0, 0.0, 0.0, 1.7641886659698956E9, 0.0, 2025-11-26 16:24:25.969
93.0, -128486.94664084275, -129796.40123801248, -128638.58087522756, -128757.78272840772, -128953.1369749471, -128621.0571075746, -128504.67157419582, -128747.27740851372, 0.0, 0.0, 0.0, 193.0, 0.0, 0.0, 0.0, 0.0, 0.0, 0.0, 0.0, 0.0, 0.0, 1.764188665974866E9, 0.0, 2025-11-26 16:24:25.974
94.0, -128491.66285892283, -129735.80565879414, -128674.67894252289, -128761.67193194294, -128922.78330597679, -128623.26993027568, -128508.69488819777, -128756.30751327367, 0.0, 0.0, 0.0, 193.0, 0.0, 0.0, 0.0, 0.0, 0.0, 0.0, 0.0, 0.0, 0.0, 1.7641886659798853E9, 0.0, 2025-11-26 16:24:25.979
95.0, -128493.45099847925, -129652.00896883119, -128665.4700238073, -128767.97512387934, -128885.50059622533, -128618.79958138462, -128507.64435620837, -128751.72540566033, 0.0, 0.0, 0.0, 193.0, 0.0, 0.0, 0.0, 0.0, 0.0, 0.0, 0.0, 0.0, 0.0, 1.764188665983961E9, 0.0, 2025-11-26 16:24:25.983
96.0, -128491.9310798563, -129575.20837488276, -128655.00940740222, -128767.81866166815, -128854.69989236593, -128620.81123838559, -128506.79498991907, -128749.78080389272, 0.0, 0.0, 0.0, 193.0, 0.0, 0.0, 0.0, 0.0, 0.0, 0.0, 0.0, 0.0, 0.0, 1.7641886659868827E9, 0.0, 2025-11-26 16:24:25.986
97.0, -128494.0321438351, -129507.21436824971, -128626.66739543289, -128760.86726914255, -128826.42493562997, -128632.4564972468, -128508.73959168668, -128751.54659170468, 0.0, 0.0, 0.0, 193.0, 0.0, 0.0, 0.0, 0.0, 0.0, 0.0, 0.0, 0.0, 0.0, 1.7641886659909244E9, 0.0, 2025-11-26 16:24:25.990
98.0, -128498.81541714854, -129429.94438766771, -128688.51467234072, -128760.97902786483, -128653.42243354589, -128635.362224026, -128512.85231266647, -128759.6379231975, 0.0, 0.0, 0.0, 193.0, 0.0, 0.0, 0.0, 0.0, 0.0, 0.0, 0.0, 0.0, 0.0, 1.7641886659939134E9, 0.0, 2025-11-26 16:24:25.993
99.0, -128499.50832122665, -129327.50634282905, -128712.78866681918, -128761.24724879829, -128581.74038907772, -128635.92101763739, -128515.24394932318, -128767.37162677904, 0.0, 0.0, 0.0, 193.0, 0.0, 0.0, 0.0, 0.0, 0.0, 0.0, 0.0, 0.0, 0.0, 1.7641886659978848E9, 0.0, 2025-11-26 16:24:25.997
100.0, -128495.2838415246, -129222.52019912246, -128697.74594280076, -128758.49798423029, -128758.47563248583, -128640.63723571746, -128513.38875453339, -128759.41440575295, 0.0, 0.0, 0.0, 193.0, 0.0, 0.0, 0.0, 0.0, 0.0, 0.0, 0.0, 0.0, 0.0, 1.7641886660029073E9, 0.0, 2025-11-26 16:24:26.002
101.0, -128490.36645774443, -129089.10263646873, -128691.59921307555, -128762.40953950997, -128958.14376570508, -128631.4059652574, -128511.22063532122, -128756.4416237404, 0.0, 0.0, 0.0, 193.0, 0.0, 0.0, 0.0, 0.0, 0.0, 0.0, 0.0, 0.0, 0.0, 1.7641886660069788E9, 0.0, 2025-11-26 16:24:26.006
102.0, -128497.85429213695, -128804.43081908594, -128709.9276435289, -128761.51546973175, -129270.53174621247, -128661.3125993386, -128515.19924583427, -128763.86240289955, 0.0, 0.0, 0.0, 193.0, 0.0, 0.0, 0.0, 0.0, 0.0, 0.0, 0.0, 0.0, 0.0, 1.7641886660109508E9, 0.0, 2025-11-26 16:24:26.010
103.0, -128499.21774854872, -128806.19660689791, -128706.44077139387, -128757.42510049643, -129500.4641414242, -128650.00261664423, -128512.69585045527, -128762.72246393234, 0.0, 0.0, 0.0, 193.0, 0.0, 0.0, 0.0, 0.0, 0.0, 0.0, 0.0, 0.0, 0.0, 1.764188666014937E9, 0.0, 2025-11-26 16:24:26.014
104.0, -128492.9816118457, -128941.67053004153, -128691.48745435328, -128759.48146098632, -129458.1522891703, -128633.32821528056, -128506.6832311968, -128756.46397548486, 0.0, 0.0, 0.0, 193.0, 0.0, 0.0, 0.0, 0.0, 0.0, 0.0, 0.0, 0.0, 0.0, 1.7641886660179288E9, 0.0, 2025-11-26 16:24:26.017
105.0, -128490.16529204433, -129090.30963066932, -128660.91026793842, -128754.13939406151, -129411.43714325872, -128617.03379357264, -128505.29742304057, -128747.88090561402, 0.0, 0.0, 0.0, 193.0, 0.0, 0.0, 0.0, 0.0, 0.0, 0.0, 0.0, 0.0, 0.0, 1.7641886660219362E9, 0.0, 2025-11-26 16:24:26.021
106.0, -128491.48404496719, -129240.89333306473, -128684.17843391639, -128755.01111209526, -129366.6889508592, -128626.22036054378, -128504.91744338482, -128750.63017018202, 0.0, 0.0, 0.0, 193.0, 0.0, 0.0, 0.0, 0.0, 0.0, 0.0, 0.0, 0.0, 0.0, 1.7641886660259814E9, 0.0, 2025-11-26 16:24:26.025
107.0, -128493.4733502237, -129431.48665803512, -128692.76150378723, -128757.71567317435, -129308.44030480867, -128638.35735778301, -128508.65018470887, -128760.71080693137, 0.0, 0.0, 0.0, 193.0, 0.0, 0.0, 0.0, 0.0, 0.0, 0.0, 0.0, 0.0, 0.0, 1.764188666030979E9, 0.0, 2025-11-26 16:24:26.030
108.0, -128485.35966698643, -129744.12050773151, -128665.44767206284, -128758.81090865267, -129260.24994376302, -128624.02988958715, -128505.11860908492, -128752.08303357162, 0.0, 0.0, 0.0, 193.0, 0.0, 0.0, 0.0, 0.0, 0.0, 0.0, 0.0, 0.0, 0.0, 1.7641886660350485E9, 0.0, 2025-11-26 16:24:26.035
109.0, -128485.47142570872, -129761.91249631793, -128627.4050029999, -128756.55338246268, -129234.94776903962, -128618.93369185134, -128500.42474274931, -128743.36585323405, 0.0, 0.0, 0.0, 193.0, 0.0, 0.0, 0.0, 0.0, 0.0, 0.0, 0.0, 0.0, 0.0, 1.7641886660389583E9, 0.0, 2025-11-26 16:24:26.038
110.0, -128487.5724896875, -129690.6551349944, -128658.29511383714, -128759.43675749742, -129211.38903038373, -128628.18731405585, -128506.39265851887, -128748.14912654748, 0.0, 0.0, 0.0, 193.0, 0.0, 0.0, 0.0, 0.0, 0.0, 0.0, 0.0, 0.0, 0.0, 1.764188666042961E9, 0.0, 2025-11-26 16:24:26.042
111.0, -128492.15459730085, -129610.50177937768, -128666.38644532996, -128763.92945813293, -129177.45908230056, -128626.86856113299, -128507.91257714183, -128751.54659170468, 0.0, 0.0, 0.0, 193.0, 0.0, 0.0, 0.0, 0.0, 0.0, 0.0, 0.0, 0.0, 0.0, 1.764188666045961E9, 0.0, 2025-11-26 16:24:26.045
112.0, -128492.60163218995, -129527.97913884869, -128650.96374165581, -128770.05383611369, -129139.72933766, -128622.35350875302, -128507.28672829708, -128751.83716438261, 0.0, 0.0, 0.0, 193.0, 0.0, 0.0, 0.0, 0.0, 0.0, 0.0, 0.0, 0.0, 0.0, 1.7641886660500045E9, 0.0, 2025-11-26 16:24:26.050
113.0, -128491.05936182254, -129455.82770774695, -128646.13576485346, -128766.67872270093, -129113.4213344361, -128630.13191582345, -128507.331431786, -128750.76428064876, 0.0, 0.0, 0.0, 193.0, 0.0, 0.0, 0.0, 0.0, 0.0, 0.0, 0.0, 0.0, 0.0, 1.7641886660539887E9, 0.0, 2025-11-26 16:24:26.053
114.0, -128491.9310798563, -129386.76081738005, -128645.2640468197, -128767.30457154568, -129090.51079636942, -128640.88310490646, -128508.9854608757, -128751.88186787152, 0.0, 0.0, 0.0, 193.0, 0.0, 0.0, 0.0, 0.0, 0.0, 0.0, 0.0, 0.0, 0.0, 1.764188666058992E9, 0.0, 2025-11-26 16:24:26.058
115.0, -128501.60938520545, -129311.7707147325, -128663.7712912287, -128766.41050176746, -129062.12408091118, -128644.32527355257, -128512.11470509943, -128759.43675749742, 0.0, 0.0, 0.0, 193.0, 0.0, 0.0, 0.0, 0.0, 0.0, 0.0, 0.0, 0.0, 0.0, 1.764188666063059E9, 0.0, 2025-11-26 16:24:26.063
116.0, -128498.59189970397, -129233.69607135012, -128660.0161981602, -128763.638885455, -129029.11055435069, -128643.94529389683, -128511.60061497697, -128757.82743189663, 0.0, 0.0, 0.0, 193.0, 0.0, 0.0, 0.0, 0.0, 0.0, 0.0, 0.0, 0.0, 0.0, 1.7641886660672107E9, 0.0, 2025-11-26 16:24:26.067
117.0, -128493.78627464609, -129157.09664310177, -128661.69257899435, -128768.31040004616, -128999.20392026949, -128647.18629684286, -128512.91936789983, -128754.80994639517, 0.0, 0.0, 0.0, 193.0, 0.0, 0.0, 0.0, 0.0, 0.0, 0.0, 0.0, 0.0, 0.0, 1.7641886660710125E9, 0.0, 2025-11-26 16:24:26.071
118.0, -128497.96605085924, -128974.57229787974, -128655.34468356904, -128770.45616751388, -128975.98045778043, -128657.02106440319, -128516.04861212357, -128756.91101037397, 0.0, 0.0, 0.0, 193.0, 0.0, 0.0, 0.0, 0.0, 0.0, 0.0, 0.0, 0.0, 0.0, 1.764188666074034E9, 0.0, 2025-11-26 16:24:26.074
119.0, -128505.74445792967, -128796.42889457094, -128698.66236432343, -128769.96442913586, -128934.54032356029, -128648.97443639928, -128520.45190578127, -128767.8410134126, 0.0, 0.0, 0.0, 193.0, 0.0, 0.0, 0.0, 0.0, 0.0, 0.0, 0.0, 0.0, 0.0, 1.7641886660780344E9, 0.0, 2025-11-26 16:24:26.078
120.0, -128506.57147247452, -128905.30424181274, -128706.23960569377, -128769.62915296904, -128876.76106414331, -128627.00267159971, -128519.69194646979, -128770.21029832486, 0.0, 0.0, 0.0, 193.0, 0.0, 0.0, 0.0, 0.0, 0.0, 0.0, 0.0, 0.0, 0.0, 1.7641886660822277E9, 0.0, 2025-11-26 16:24:26.082
121.0, -128504.1798358178, -129048.69068249354, -128693.63322182099, -128771.77492043674, -128766.65637095648, -128629.84134314554, -128518.03791738009, -128765.65054245599, 0.0, 0.0, 0.0, 193.0, 0.0, 0.0, 0.0, 0.0, 0.0, 0.0, 0.0, 0.0, 0.0, 1.7641886660861003E9, 0.0, 2025-11-26 16:24:26.086
122.0, -128509.16427483133, -129183.0917219033, -128723.74102160228, -128770.18794658041, -128551.58788580752, -128668.46515756431, -128519.37902204742, -128770.70203670289, 0.0, 0.0, 0.0, 193.0, 0.0, 0.0, 0.0, 0.0, 0.0, 0.0, 0.0, 0.0, 0.0, 1.7641886660910404E9, 0.0, 2025-11-26 16:24:26.091
123.0, -128510.95241438776, -129295.40923779122, -128737.95673107586, -128769.42798726894, -128633.35056702502, -128687.3747333735, -128521.70360347077, -128776.60289723909, 0.0, 0.0, 0.0, 193.0, 0.0, 0.0, 0.0, 0.0, 0.0, 0.0, 0.0, 0.0, 0.0, 1.7641886660950947E9, 0.0, 2025-11-26 16:24:26.095
124.0, -128508.9854608757, -129451.1561931558, -128737.5320479312, -128765.6952459449, -128784.71658047636, -128689.85577700804, -128519.35667030295, -128773.96539139336, 0.0, 0.0, 0.0, 193.0, 0.0, 0.0, 0.0, 0.0, 0.0, 0.0, 0.0, 0.0, 0.0, 1.7641886660980945E9, 0.0, 2025-11-26 16:24:26.098
125.0, -128498.7260101707, -129736.85619078354, -128703.44563763686, -128759.10148133058, -128961.1388994621, -128647.00748288722, -128512.40527777736, -128759.92849587543, 0.0, 0.0, 0.0, 193.0, 0.0, 0.0, 0.0, 0.0, 0.0, 0.0, 0.0, 0.0, 0.0, 1.76418866610211E9, 0.0, 2025-11-26 16:24:26.102
126.0, -128492.33341125649, -129732.5199523592, -128667.1687563859, -128755.07816732863, -129308.6191187643, -128623.09111632004, -128505.72210618522, -128748.6408649255, 0.0, 0.0, 0.0, 193.0, 0.0, 0.0, 0.0, 0.0, 0.0, 0.0, 0.0, 0.0, 0.0, 1.7641886661061182E9, 0.0, 2025-11-26 16:24:26.106
127.0, -128493.04866707906, -129652.54541069812, -128665.55943078511, -128757.91683887444, -129526.61568243691, -128616.83262787256, -128507.97963237521, -128753.37943475002, 0.0, 0.0, 0.0, 193.0, 0.0, 0.0, 0.0, 0.0, 0.0, 0.0, 0.0, 0.0, 0.0, 1.764188666110123E9, 0.0, 2025-11-26 16:24:26.110
128.0, -128493.60746069044, -129571.85561321446, -128663.74893948424, -128757.04512084069, -129498.69835361224, -128619.04545057363, -128509.11957134242, -128750.89839111548, 0.0, 0.0, 0.0, 193.0, 0.0, 0.0, 0.0, 0.0, 0.0, 0.0, 0.0, 0.0, 0.0, 1.7641886661141129E9, 0.0, 2025-11-26 16:24:26.114
129.0, -128490.58997518898, -129493.78096983206, -128656.17169811389, -128755.92753361793, -129464.18726017325, -128617.23495927274, -128506.6832311968, -128747.7914986362, 0.0, 0.0, 0.0, 193.0, 0.0, 0.0, 0.0, 0.0, 0.0, 0.0, 0.0, 0.0, 0.0, 1.764188666119112E9, 0.0, 2025-11-26 16:24:26.119
130.0, -128493.2274810347, -129423.41767828676, -128645.44286077535, -128759.79438540869, -129439.33212033894, -128623.5605029536, -128507.35378353046, -128750.20548703737, 0.0, 0.0, 0.0, 193.0, 0.0, 0.0, 0.0, 0.0, 0.0, 0.0, 0.0, 0.0, 0.0, 1.7641886661231313E9, 0.0, 2025-11-26 16:24:26.123
131.0, -128495.3285450135, -129353.16614546374, -128661.3125993386, -128764.51060348876, -129414.96871888265, -128632.25533154671, -128511.51120799914, -128753.73706266131, 0.0, 0.0, 0.0, 193.0, 0.0, 0.0, 0.0, 0.0, 0.0, 0.0, 0.0, 0.0, 0.0, 1.7641886661261103E9, 0.0, 2025-11-26 16:24:26.126
132.0, -128494.9262136133, -129275.3597230148, -128662.54194528365, -128764.75647267778, -129381.99989581108, -128633.19410481384, -128512.82996092201, -128757.55921096317, 0.0, 0.0, 0.0, 193.0, 0.0, 0.0, 0.0, 0.0, 0.0, 0.0, 0.0, 0.0, 0.0, 1.7641886661301312E9, 0.0, 2025-11-26 16:24:26.130
133.0, -128492.22165253421, -129194.46875983106, -128667.86166046401, -128769.8973739025, -129345.83477328239, -128630.9142268794, -128512.65114696637, -128754.72053941734, 0.0, 0.0, 0.0, 193.0, 0.0, 0.0, 0.0, 0.0, 0.0, 0.0, 0.0, 0.0, 0.0, 1.764188666134115E9, 0.0, 2025-11-26 16:24:26.134
134.0, -128491.327582756, -129099.11621798472, -128646.85102067603, -128773.89833616, -129318.6774037692, -128636.63627345995, -128514.50634175616, -128756.57573420713, 0.0, 0.0, 0.0, 193.0, 0.0, 0.0, 0.0, 0.0, 0.0, 0.0, 0.0, 0.0, 0.0, 1.7641886661381352E9, 0.0, 2025-11-26 16:24:26.138
135.0, -128503.1293038284, -128848.68727310745, -128672.73434075527, -128773.51835650425, -129290.35774354431, -128641.35249154002, -128516.60740573495, -128761.22489705383, 0.0, 0.0, 0.0, 193.0, 0.0, 0.0, 0.0, 0.0, 0.0, 0.0, 0.0, 0.0, 0.0, 1.76418866614232E9, 0.0, 2025-11-26 16:24:26.142
136.0, -128504.80568466255, -128819.71941229337, -128702.14923645846, -128768.80213842419, -129239.03813827493, -128631.13774432395, -128518.64141448039, -128766.16463257845, 0.0, 0.0, 0.0, 193.0, 0.0, 0.0, 0.0, 0.0, 0.0, 0.0, 0.0, 0.0, 0.0, 1.7641886661461868E9, 0.0, 2025-11-26 16:24:26.146
137.0, -128502.97284161721, -128957.1379372046, -128699.39997189045, -128766.43285351193, -129181.88472770271, -128641.64306421795, -128516.36153654594, -128763.70594068838, 0.0, 0.0, 0.0, 193.0, 0.0, 0.0, 0.0, 0.0, 0.0, 0.0, 0.0, 0.0, 0.0, 1.7641886661511793E9, 0.0, 2025-11-26 16:24:26.151
138.0, -128502.6822689393, -129101.57490987479, -128691.95684098684, -128767.34927503459, -129130.18514277758, -128639.72081419479, -128517.07679236852, -128762.18602206542, 0.0, 0.0, 0.0, 193.0, 0.0, 0.0, 0.0, 0.0, 0.0, 0.0, 0.0, 0.0, 0.0, 1.7641886661541753E9, 0.0, 2025-11-26 16:24:26.154
139.0, -128500.04476309357, -129252.3597779703, -128683.48552983828, -128766.96929537885, -129086.8227585343, -128626.57798845506, -128516.00390863467, -128760.33082727563, 0.0, 0.0, 0.0, 193.0, 0.0, 0.0, 0.0, 0.0, 0.0, 0.0, 0.0, 0.0, 0.0, 1.7641886661581695E9, 0.0, 2025-11-26 16:24:26.158
140.0, -128502.86108289495, -129455.31361762449, -128706.57488186061, -128768.75743493528, -129036.46427827649, -128642.82770667407, -128517.45677202425, -128768.22099306835, 0.0, 0.0, 0.0, 193.0, 0.0, 0.0, 0.0, 0.0, 0.0, 0.0, 0.0, 0.0, 0.0, 1.764188666162155E9, 0.0, 2025-11-26 16:24:26.162
141.0, -128500.26828053812, -129762.13601376249, -128681.29505888166, -128767.81866166815, -128986.8434055857, -128635.54103798165, -128516.45094352377, -128762.05191159868, 0.0, 0.0, 0.0, 193.0, 0.0, 0.0, 0.0, 0.0, 0.0, 0.0, 0.0, 0.0, 0.0, 1.7641886661662073E9, 0.0, 2025-11-26 16:24:26.166
142.0, -128498.10016132596, -129766.89693533146, -128658.5633347706, -128768.0421791127, -128956.51208835986, -128622.3088052641, -128514.70750745626, -128758.38622550802, 0.0, 0.0, 0.0, 193.0, 0.0, 0.0, 0.0, 0.0, 0.0, 0.0, 0.0, 0.0, 0.0, 1.764188666170207E9, 0.0, 2025-11-26 16:24:26.170
143.0, -128499.39656250436, -129697.67358275338, -128659.5691632711, -128773.02661812624, -128934.56267530474, -128632.54590422464, -128512.80760917756, -128759.23559179732, 0.0, 0.0, 0.0, 193.0, 0.0, 0.0, 0.0, 0.0, 0.0, 0.0, 0.0, 0.0, 0.0, 1.7641886661751783E9, 0.0, 2025-11-26 16:24:26.175
144.0, -128500.73766717169, -129621.9905760277, -128667.9734191863, -128773.76422569326, -128906.3771255466, -128637.4632880048, -128515.69098421228, -128762.87892614353, 0.0, 0.0, 0.0, 193.0, 0.0, 0.0, 0.0, 0.0, 0.0, 0.0, 0.0, 0.0, 0.0, 1.7641886661791875E9, 0.0, 2025-11-26 16:24:26.179
145.0, -128502.70462068375, -129538.95384537625, -128670.5215180542, -128770.61262972506, -128868.7144361394, -128632.27768329116, -128520.34014705899, -128762.85657439908, 0.0, 0.0, 0.0, 193.0, 0.0, 0.0, 0.0, 0.0, 0.0, 0.0, 0.0, 0.0, 0.0, 1.764188666182236E9, 0.0, 2025-11-26 16:24:26.182
146.0, -128501.36351601644, -129462.44382410572, -128660.64204700495, -128773.45130127089, -128811.94100522292, -128633.88700889195, -128517.14384760188, -128757.71567317435, 0.0, 0.0, 0.0, 193.0, 0.0, 0.0, 0.0, 0.0, 0.0, 0.0, 0.0, 0.0, 0.0, 1.764188666186238E9, 0.0, 2025-11-26 16:24:26.186
147.0, -128503.0846003395, -129386.47024470214, -128672.75669249972, -128778.68160947342, -128616.36324123899, -128638.13384033846, -128518.41789703583, -128760.21906855334, 0.0, 0.0, 0.0, 193.0, 0.0, 0.0, 0.0, 0.0, 0.0, 0.0, 0.0, 0.0, 0.0, 1.764188666190271E9, 0.0, 2025-11-26 16:24:26.190
148.0, -128507.57730097501, -129294.89514766875, -128702.26099518074, -128772.13254834802, -128662.43018656138, -128639.63140721696, -128522.24004533769, -128768.42215876844, 0.0, 0.0, 0.0, 193.0, 0.0, 0.0, 0.0, 0.0, 0.0, 0.0, 0.0, 0.0, 0.0, 1.7641886661942713E9, 0.0, 2025-11-26 16:24:26.194
149.0, -128502.05642009455, -129182.0411899139, -128720.72353610082, -128767.81866166815, -128844.08281374966, -128657.35634057003, -128520.67542322582, -128773.56305999316, 0.0, 0.0, 0.0, 193.0, 0.0, 0.0, 0.0, 0.0, 0.0, 0.0, 0.0, 0.0, 0.0, 1.764188666198447E9, 0.0, 2025-11-26 16:24:26.198
150.0, -128503.57633871751, -128922.49273329887, -128718.55541688866, -128770.56792623615, -129040.17466785606, -128666.63231451898, -128519.42372553633, -128769.60680122458, 0.0, 0.0, 0.0, 193.0, 0.0, 0.0, 0.0, 0.0, 0.0, 0.0, 0.0, 0.0, 0.0, 1.7641886662032561E9, 0.0, 2025-11-26 16:24:26.203
151.0, -128507.04085910808, -128785.16361536547, -128710.01705050672, -128771.86432741456, -129388.28073600301, -128658.89861093744, -128519.20020809177, -128770.05383611369, 0.0, 0.0, 0.0, 193.0, 0.0, 0.0, 0.0, 0.0, 0.0, 0.0, 0.0, 0.0, 0.0, 1.7641886662062411E9, 0.0, 2025-11-26 16:24:26.206
152.0, -128505.25271955166, -128912.81442794972, -128700.51755911321, -128773.07132161515, -129512.44467645224, -128647.02983463167, -128519.71429821424, -128768.08688260161, 0.0, 0.0, 0.0, 193.0, 0.0, 0.0, 0.0, 0.0, 0.0, 0.0, 0.0, 0.0, 0.0, 1.7641886662092423E9, 0.0, 2025-11-26 16:24:26.209
153.0, -128502.01171660564, -129051.93168543956, -128698.3717916455, -128767.77395817924, -129457.14646066981, -128647.85684917652, -128517.18855109079, -128765.06939710015, 0.0, 0.0, 0.0, 193.0, 0.0, 0.0, 0.0, 0.0, 0.0, 0.0, 0.0, 0.0, 0.0, 1.7641886662143047E9, 0.0, 2025-11-26 16:24:26.214
