%OpenBCI Raw EXG Data
%Number of channels = 8
%Sample Rate = 250 Hz
%Board = OpenBCI_GUI$BoardCytonSerial
Sample Index, EXG Channel 0, EXG Channel 1, EXG Channel 2, EXG Channel 3, EXG Channel 4, EXG Channel 5, EXG Channel 6, EXG Channel 7, Accel Channel 0, Accel Channel 1, Accel Channel 2, Not Used, Digital Channel 0 (D11), Digital Channel 1 (D12), Digital Channel 2 (D13), Digital Channel 3 (D17), Not Used, Digital Channel 4 (D18), Analog Channel 0, Analog Channel 1, Analog Channel 2, Timestamp, Marker Channel, Timestamp (Formatted)
0.0, -180277.45846241218, -183949.15717234102, -184240.31099561584, -183062.2623040989, -186361.5362479134, -186243.29551974483, -181375.21968784567, -187500.02235174447, 0.0, 0.0, 0.0, 193.0, 0.0, 0.0, 0.0, 0.0, 0.0, 0.0, 0.0, 0.0, 0.0, 1.7635829836016147E9, 0.0, 2025-11-19 16:09:43.601
1.0, -180275.89384030033, -183948.12899209608, -184239.37222234873, -183061.2564755984, -186360.55277115738, -186242.58026392225, -181373.78917620055, -187500.02235174447, 0.0, 0.0, 0.0, 193.0, 0.0, 0.0, 0.0, 0.0, 0.0, 0.0, 0.0, 0.0, 0.0, 1.7635829836046257E9, 0.0, 2025-11-19 16:09:43.604
2.0, -180276.20676472268, -183948.95600664092, -184240.15453340465, -183062.0611383988, -186361.15626825768, -186243.40727846712, -181374.07974887846, -187500.02235174447, 0.0, 0.0, 0.0, 193.0, 0.0, 0.0, 0.0, 0.0, 0.0, 0.0, 0.0, 0.0, 0.0, 1.763582983608652E9, 0.0, 2025-11-19 16:09:43.608
3.0, -180276.20676472268, -183949.4700967634, -184240.57921654932, -183062.32935933225, -186361.31273046884, -186243.92136858957, -181373.76682445608, -187500.02235174447, 0.0, 0.0, 0.0, 193.0, 0.0, 0.0, 0.0, 0.0, 0.0, 0.0, 0.0, 0.0, 0.0, 1.7635829836126194E9, 0.0, 2025-11-19 16:09:43.612
4.0, -180275.29034320003, -183948.911303152, -184239.93101596012, -183061.74821397642, -186360.485715924, -186243.42963021155, -181372.5598302555, -187500.02235174447, 0.0, 0.0, 0.0, 193.0, 0.0, 0.0, 0.0, 0.0, 0.0, 0.0, 0.0, 0.0, 0.0, 1.7635829836166615E9, 0.0, 2025-11-19 16:09:43.616
5.0, -180276.78791007854, -183950.922960153, -184241.8979694722, -183063.82692621078, -186362.40796594715, -186245.709508146, -181374.07974887846, -187500.02235174447, 0.0, 0.0, 0.0, 193.0, 0.0, 0.0, 0.0, 0.0, 0.0, 0.0, 0.0, 0.0, 0.0, 1.7635829836206644E9, 0.0, 2025-11-19 16:09:43.620
6.0, -180276.6985031007, -183951.30293980872, -184242.50146657246, -183064.22925761095, -186362.7879456029, -186246.49181920194, -181373.99034190064, -187500.02235174447, 0.0, 0.0, 0.0, 193.0, 0.0, 0.0, 0.0, 0.0, 0.0, 0.0, 0.0, 0.0, 0.0, 1.763582983625671E9, 0.0, 2025-11-19 16:09:43.625
7.0, -180276.29617170052, -183951.28058806428, -184242.3897078502, -183064.09514714422, -186362.497372925, -186246.55887443532, -181373.20803084472, -187500.02235174447, 0.0, 0.0, 0.0, 193.0, 0.0, 0.0, 0.0, 0.0, 0.0, 0.0, 0.0, 0.0, 0.0, 1.7635829836296885E9, 0.0, 2025-11-19 16:09:43.629
8.0, -180272.87635479885, -183948.39721302953, -184239.41692583764, -183061.12236513168, -186359.2787217234, -186243.72020288947, -181369.58704824295, -187500.02235174447, 0.0, 0.0, 0.0, 193.0, 0.0, 0.0, 0.0, 0.0, 0.0, 0.0, 0.0, 0.0, 0.0, 1.763582983632688E9, 0.0, 2025-11-19 16:09:43.632
9.0, -180271.22232570915, -183947.30197755122, -184238.2993386149, -183060.1612401201, -186358.07172752282, -186242.93789183354, -181368.20124008672, -187500.02235174447, 0.0, 0.0, 0.0, 193.0, 0.0, 0.0, 0.0, 0.0, 0.0, 0.0, 0.0, 0.0, 0.0, 1.763582983636701E9, 0.0, 2025-11-19 16:09:43.636
10.0, -180269.18831696373, -183945.6255967171, -184236.8464752253, -183058.57426626378, -186356.30593971087, -186241.52973193285, -181366.05547261902, -187500.02235174447, 0.0, 0.0, 0.0, 193.0, 0.0, 0.0, 0.0, 0.0, 0.0, 0.0, 0.0, 0.0, 0.0, 1.7635829836406915E9, 0.0, 2025-11-19 16:09:43.640
11.0, -180268.07072974095, -183944.97739612788, -184236.31003335834, -183057.8590104412, -186355.45657342157, -186240.90388308812, -181364.71436795167, -187500.02235174447, 0.0, 0.0, 0.0, 193.0, 0.0, 0.0, 0.0, 0.0, 0.0, 0.0, 0.0, 0.0, 0.0, 1.7635829836447678E9, 0.0, 2025-11-19 16:09:43.644
12.0, -180267.95897101867, -183945.3573757836, -184236.55590254735, -183058.0601761413, -186355.50127691048, -186241.19445576603, -181364.28968480704, -187500.02235174447, 0.0, 0.0, 0.0, 193.0, 0.0, 0.0, 0.0, 0.0, 0.0, 0.0, 0.0, 0.0, 0.0, 1.7635829836487389E9, 0.0, 2025-11-19 16:09:43.648
13.0, -180263.95800876117, -183941.8705036486, -184233.06903041233, -183054.5509522618, -186351.8802943087, -186237.93110107555, -181360.26637080507, -187500.02235174447, 0.0, 0.0, 0.0, 193.0, 0.0, 0.0, 0.0, 0.0, 0.0, 0.0, 0.0, 0.0, 0.0, 1.763582983652708E9, 0.0, 2025-11-19 16:09:43.652
14.0, -180262.9521802607, -183941.5128757373, -184232.6443472677, -183054.17097260608, -186351.45561116407, -186237.707583631, -181359.3052457935, -187500.02235174447, 0.0, 0.0, 0.0, 193.0, 0.0, 0.0, 0.0, 0.0, 0.0, 0.0, 0.0, 0.0, 0.0, 1.7635829836567278E9, 0.0, 2025-11-19 16:09:43.656
15.0, -180261.38755814882, -183940.417640259, -184231.52676004492, -183052.98633014993, -186350.0921547523, -186236.76881036386, -181357.45005100372, -187500.02235174447, 0.0, 0.0, 0.0, 193.0, 0.0, 0.0, 0.0, 0.0, 0.0, 0.0, 0.0, 0.0, 0.0, 1.7635829836597333E9, 0.0, 2025-11-19 16:09:43.659
16.0, -180261.36520640436, -183940.79761991472, -184231.8396844673, -183053.1651441056, -186350.11450649673, -186237.17114176406, -181357.04771960352, -187500.02235174447, 0.0, 0.0, 0.0, 193.0, 0.0, 0.0, 0.0, 0.0, 0.0, 0.0, 0.0, 0.0, 0.0, 1.7635829836648011E9, 0.0, 2025-11-19 16:09:43.664
17.0, -180261.6557790823, -183941.60228271512, -184232.66669901213, -183054.0145103949, -186350.89681755268, -186238.28872898684, -181357.42769925925, -187500.02235174447, 0.0, 0.0, 0.0, 193.0, 0.0, 0.0, 0.0, 0.0, 0.0, 0.0, 0.0, 0.0, 0.0, 1.7635829836687517E9, 0.0, 2025-11-19 16:09:43.668
18.0, -180259.26414242556, -183939.79179141426, -184230.92326294462, -183052.2487225829, -186349.10867799626, -186236.83586559724, -181355.17017306926, -187500.02235174447, 0.0, 0.0, 0.0, 193.0, 0.0, 0.0, 0.0, 0.0, 0.0, 0.0, 0.0, 0.0, 0.0, 1.7635829836737547E9, 0.0, 2025-11-19 16:09:43.673
19.0, -180255.66551156825, -183936.6625471905, -184227.74931523198, -183049.07477487027, -186345.6888610946, -186233.8630835847, -181351.39272825632, -187500.02235174447, 0.0, 0.0, 0.0, 193.0, 0.0, 0.0, 0.0, 0.0, 0.0, 0.0, 0.0, 0.0, 0.0, 1.7635829836767547E9, 0.0, 2025-11-19 16:09:43.676
20.0, -180254.97260749014, -183936.39432625705, -184227.36933557622, -183048.67244347007, -186345.1747709721, -186233.59486265123, -181350.31984452248, -187500.02235174447, 0.0, 0.0, 0.0, 193.0, 0.0, 0.0, 0.0, 0.0, 0.0, 0.0, 0.0, 0.0, 0.0, 1.763582983680756E9, 0.0, 2025-11-19 16:09:43.680
21.0, -180256.29136041302, -183938.160114069, -184229.20217862158, -183050.48293477096, -186346.76174482846, -186235.53946441883, -181351.54919046751, -187500.02235174447, 0.0, 0.0, 0.0, 193.0, 0.0, 0.0, 0.0, 0.0, 0.0, 0.0, 0.0, 0.0, 0.0, 1.7635829836848016E9, 0.0, 2025-11-19 16:09:43.684
22.0, -180254.27970341203, -183936.55078846822, -184227.70461174307, -183048.94066440352, -186345.0853639943, -186234.24306324043, -181349.5151817221, -187500.02235174447, 0.0, 0.0, 0.0, 193.0, 0.0, 0.0, 0.0, 0.0, 0.0, 0.0, 0.0, 0.0, 0.0, 1.763582983688775E9, 0.0, 2025-11-19 16:09:43.688
23.0, -180253.11741270035, -183935.79082915676, -184227.0340594094, -183048.22540858097, -186344.14659072718, -186233.72897311795, -181348.17407705475, -187500.02235174447, 0.0, 0.0, 0.0, 193.0, 0.0, 0.0, 0.0, 0.0, 0.0, 0.0, 0.0, 0.0, 0.0, 1.7635829836927717E9, 0.0, 2025-11-19 16:09:43.692
24.0, -180253.22917142263, -183936.4613814904, -184227.57050127632, -183048.8065539368, -186344.34775642728, -186234.2654149849, -181347.92820786574, -187500.02235174447, 0.0, 0.0, 0.0, 193.0, 0.0, 0.0, 0.0, 0.0, 0.0, 0.0, 0.0, 0.0, 0.0, 1.763582983695779E9, 0.0, 2025-11-19 16:09:43.695
25.0, -180250.52461034353, -183934.22620704488, -184225.2906233419, -183046.52667600237, -186342.00082325947, -186232.2537579839, -181345.2012950422, -187500.02235174447, 0.0, 0.0, 0.0, 193.0, 0.0, 0.0, 0.0, 0.0, 0.0, 0.0, 0.0, 0.0, 0.0, 1.7635829836997888E9, 0.0, 2025-11-19 16:09:43.699
26.0, -180245.18254341872, -183929.3535267536, -184220.4402947951, -183041.6986992, -186337.1281429682, -186227.73870560393, -181339.88157986183, -187500.02235174447, 0.0, 0.0, 0.0, 193.0, 0.0, 0.0, 0.0, 0.0, 0.0, 0.0, 0.0, 0.0, 0.0, 1.7635829837048192E9, 0.0, 2025-11-19 16:09:43.704
27.0, -180243.05912769548, -183927.7665528973, -184218.89802442768, -183040.0446701103, -186335.34000341178, -186226.28584221433, -181337.71346064968, -187500.02235174447, 0.0, 0.0, 0.0, 193.0, 0.0, 0.0, 0.0, 0.0, 0.0, 0.0, 0.0, 0.0, 0.0, 1.7635829837087917E9, 0.0, 2025-11-19 16:09:43.708
28.0, -180242.65679629528, -183927.74420115285, -184218.80861744986, -183039.93291138805, -186335.11648596724, -186226.44230442552, -181336.9982048271, -187500.02235174447, 0.0, 0.0, 0.0, 193.0, 0.0, 0.0, 0.0, 0.0, 0.0, 0.0, 0.0, 0.0, 0.0, 1.763582983712792E9, 0.0, 2025-11-19 16:09:43.712
29.0, -180243.17088641773, -183928.72767790887, -184219.74739071698, -183040.8493329107, -186335.9211487676, -186227.6045951372, -181337.42288797177, -187500.02235174447, 0.0, 0.0, 0.0, 193.0, 0.0, 0.0, 0.0, 0.0, 0.0, 0.0, 0.0, 0.0, 0.0, 1.763582983716819E9, 0.0, 2025-11-19 16:09:43.716
30.0, -180243.61792130684, -183929.73350640936, -184220.82027445082, -183041.8551614112, -186336.7705150569, -186228.7668858489, -181337.86992286087, -187500.02235174447, 0.0, 0.0, 0.0, 193.0, 0.0, 0.0, 0.0, 0.0, 0.0, 0.0, 0.0, 0.0, 0.0, 1.76358298372082E9, 0.0, 2025-11-19 16:09:43.720
31.0, -180240.0863456829, -183926.7607243968, -184217.8251406938, -183038.92708288756, -186333.70832606655, -186225.88351081414, -181334.293643748, -187500.02235174447, 0.0, 0.0, 0.0, 193.0, 0.0, 0.0, 0.0, 0.0, 0.0, 0.0, 0.0, 0.0, 0.0, 1.7635829837238407E9, 0.0, 2025-11-19 16:09:43.723
32.0, -180237.8958747263, -183925.0619918182, -184215.90289067067, -183037.0048328644, -186331.56255859885, -186224.1624264911, -181331.67848964676, -187500.02235174447, 0.0, 0.0, 0.0, 193.0, 0.0, 0.0, 0.0, 0.0, 0.0, 0.0, 0.0, 0.0, 0.0, 1.7635829837278273E9, 0.0, 2025-11-19 16:09:43.727
33.0, -180235.9959764476, -183923.65383191753, -184214.4276755366, -183035.46256249698, -186329.88617776468, -186222.7989700793, -181329.62212915687, -187500.02235174447, 0.0, 0.0, 0.0, 193.0, 0.0, 0.0, 0.0, 0.0, 0.0, 0.0, 0.0, 0.0, 0.0, 1.7635829837318454E9, 0.0, 2025-11-19 16:09:43.731
34.0, -180231.6373862788, -183919.92109059347, -184210.80669293486, -183031.70746942848, -186326.08638120728, -186219.3120979443, -181325.3976494548, -187500.02235174447, 0.0, 0.0, 0.0, 193.0, 0.0, 0.0, 0.0, 0.0, 0.0, 0.0, 0.0, 0.0, 0.0, 1.7635829837368784E9, 0.0, 2025-11-19 16:09:43.736
35.0, -180230.9444822007, -183919.69757314894, -184210.717285957, -183031.5510072173, -186325.77345678493, -186219.37915317764, -181324.77180061006, -187500.02235174447, 0.0, 0.0, 0.0, 193.0, 0.0, 0.0, 0.0, 0.0, 0.0, 0.0, 0.0, 0.0, 0.0, 1.76358298374086E9, 0.0, 2025-11-19 16:09:43.740
36.0, -180232.039717679, -183921.23984351635, -184212.10309411326, -183033.0038706069, -186327.04750621886, -186221.03318226733, -181325.554111666, -187500.02235174447, 0.0, 0.0, 0.0, 193.0, 0.0, 0.0, 0.0, 0.0, 0.0, 0.0, 0.0, 0.0, 0.0, 1.7635829837448487E9, 0.0, 2025-11-19 16:09:43.744
37.0, -180227.97170018815, -183917.55180568123, -184208.3703527892, -183029.27112928286, -186323.18065442808, -186217.4569031545, -181321.1955214972, -187500.02235174447, 0.0, 0.0, 0.0, 193.0, 0.0, 0.0, 0.0, 0.0, 0.0, 0.0, 0.0, 0.0, 0.0, 1.763582983748846E9, 0.0, 2025-11-19 16:09:43.748
38.0, -180223.97073793065, -183914.08728529065, -184204.95053588756, -183025.78425714784, -186319.60437531525, -186214.17119671957, -181317.1945592397, -187500.02235174447, 0.0, 0.0, 0.0, 193.0, 0.0, 0.0, 0.0, 0.0, 0.0, 0.0, 0.0, 0.0, 0.0, 1.763582983752869E9, 0.0, 2025-11-19 16:09:43.752
39.0, -180222.80844721897, -183913.34967772363, -184204.39174227617, -183025.11370481417, -186318.75500902595, -186213.7465135749, -181316.0993237614, -187500.02235174447, 0.0, 0.0, 0.0, 193.0, 0.0, 0.0, 0.0, 0.0, 0.0, 0.0, 0.0, 0.0, 0.0, 1.763582983755901E9, 0.0, 2025-11-19 16:09:43.755
40.0, -180222.24965360758, -183913.2602707458, -184204.21292832054, -183024.89018736963, -186318.46443634803, -186213.7465135749, -181315.27230921655, -187500.02235174447, 0.0, 0.0, 0.0, 193.0, 0.0, 0.0, 0.0, 0.0, 0.0, 0.0, 0.0, 0.0, 0.0, 1.7635829837598712E9, 0.0, 2025-11-19 16:09:43.759
41.0, -180219.031002406, -183910.5110061778, -184201.44131200807, -183021.98446059044, -186315.51400607993, -186210.97489726247, -181311.76308533706, -187500.02235174447, 0.0, 0.0, 0.0, 193.0, 0.0, 0.0, 0.0, 0.0, 0.0, 0.0, 0.0, 0.0, 0.0, 1.7635829837638755E9, 0.0, 2025-11-19 16:09:43.763
42.0, -180217.80165646097, -183909.88515733305, -184200.86016665224, -183021.35861174567, -186314.59758455725, -186210.5949176067, -181310.62314636985, -187500.02235174447, 0.0, 0.0, 0.0, 193.0, 0.0, 0.0, 0.0, 0.0, 0.0, 0.0, 0.0, 0.0, 0.0, 1.7635829837688885E9, 0.0, 2025-11-19 16:09:43.768
43.0, -180217.66754599425, -183910.28748873324, -184201.28484979688, -183021.76094314587, -186314.88815723517, -186211.17606296256, -181310.55609113647, -187500.02235174447, 0.0, 0.0, 0.0, 193.0, 0.0, 0.0, 0.0, 0.0, 0.0, 0.0, 0.0, 0.0, 0.0, 1.7635829837728975E9, 0.0, 2025-11-19 16:09:43.772
44.0, -180217.39932506077, -183910.39924745553, -184201.46366375254, -183021.78329489034, -186314.86580549073, -186211.444283896, -181309.9972975251, -187500.02235174447, 0.0, 0.0, 0.0, 193.0, 0.0, 0.0, 0.0, 0.0, 0.0, 0.0, 0.0, 0.0, 0.0, 1.7635829837759087E9, 0.0, 2025-11-19 16:09:43.775
45.0, -180215.16415061525, -183908.70051487692, -184199.51906198493, -183019.97280358945, -186312.80944500084, -186209.76790306187, -181307.51625389056, -187500.02235174447, 0.0, 0.0, 0.0, 193.0, 0.0, 0.0, 0.0, 0.0, 0.0, 0.0, 0.0, 0.0, 0.0, 1.7635829837799067E9, 0.0, 2025-11-19 16:09:43.779
46.0, -180214.7841709595, -183908.83462534365, -184199.54141372937, -183020.01750707836, -186312.78709325637, -186210.12553097316, -181307.11392249036, -187500.02235174447, 0.0, 0.0, 0.0, 193.0, 0.0, 0.0, 0.0, 0.0, 0.0, 0.0, 0.0, 0.0, 0.0, 1.7635829837839177E9, 0.0, 2025-11-19 16:09:43.783
47.0, -180211.65492673576, -183906.15241600902, -184197.14977707266, -183017.46940821045, -186310.08253217727, -186207.73389431642, -181303.98467826663, -187500.02235174447, 0.0, 0.0, 0.0, 193.0, 0.0, 0.0, 0.0, 0.0, 0.0, 0.0, 0.0, 0.0, 0.0, 1.7635829837879705E9, 0.0, 2025-11-19 16:09:43.787
48.0, -180208.36922030084, -183903.47020667436, -184194.40051250465, -183014.80955062027, -186307.221508887, -186205.20814719299, -181300.63191659833, -187500.02235174447, 0.0, 0.0, 0.0, 193.0, 0.0, 0.0, 0.0, 0.0, 0.0, 0.0, 0.0, 0.0, 0.0, 1.763582983791918E9, 0.0, 2025-11-19 16:09:43.791
49.0, -180209.12917961233, -183904.65484913051, -184195.49574798296, -183015.81537912076, -186308.20498564304, -186206.3927896491, -181301.10130323187, -187500.02235174447, 0.0, 0.0, 0.0, 193.0, 0.0, 0.0, 0.0, 0.0, 0.0, 0.0, 0.0, 0.0, 0.0, 1.7635829837969632E9, 0.0, 2025-11-19 16:09:43.796
50.0, -180209.06212437895, -183905.14658750853, -184195.89807938316, -183016.17300703205, -186308.4732065765, -186206.9962867494, -181300.87778578734, -187500.02235174447, 0.0, 0.0, 0.0, 193.0, 0.0, 0.0, 0.0, 0.0, 0.0, 0.0, 0.0, 0.0, 0.0, 1.7635829838009548E9, 0.0, 2025-11-19 16:09:43.800
51.0, -180206.3352115554, -183902.82200608516, -184193.66290493764, -183013.96018433096, -186305.96981119752, -186204.96227800398, -181298.15087296377, -187500.02235174447, 0.0, 0.0, 0.0, 193.0, 0.0, 0.0, 0.0, 0.0, 0.0, 0.0, 0.0, 0.0, 0.0, 1.7635829838039453E9, 0.0, 2025-11-19 16:09:43.803
52.0, -180206.89400516677, -183903.8054828412, -184194.66873343813, -183014.8989575981, -186306.75212225344, -186206.1022169712, -181298.59790785288, -187500.02235174447, 0.0, 0.0, 0.0, 193.0, 0.0, 0.0, 0.0, 0.0, 0.0, 0.0, 0.0, 0.0, 0.0, 1.7635829838079472E9, 0.0, 2025-11-19 16:09:43.807
53.0, -180207.07281912243, -183904.4089799415, -184195.18282356058, -183015.41304772056, -186307.06504667582, -186206.77276930487, -181298.41909389725, -187500.02235174447, 0.0, 0.0, 0.0, 193.0, 0.0, 0.0, 0.0, 0.0, 0.0, 0.0, 0.0, 0.0, 0.0, 1.7635829838119433E9, 0.0, 2025-11-19 16:09:43.811
54.0, -180205.57525224393, -183903.44785492992, -184194.26640203793, -183014.40721922007, -186305.9251077086, -186205.9904582489, -181296.87682352983, -187500.02235174447, 0.0, 0.0, 0.0, 193.0, 0.0, 0.0, 0.0, 0.0, 0.0, 0.0, 0.0, 0.0, 0.0, 1.7635829838160264E9, 0.0, 2025-11-19 16:09:43.816
55.0, -180205.39643828827, -183903.89488981903, -184194.66873343813, -183014.83190236473, -186306.2827356199, -186206.61630709367, -181296.83212004093, -187500.02235174447, 0.0, 0.0, 0.0, 193.0, 0.0, 0.0, 0.0, 0.0, 0.0, 0.0, 0.0, 0.0, 0.0, 1.7635829838200068E9, 0.0, 2025-11-19 16:09:43.820
56.0, -180203.25067082056, -183902.33026770715, -184193.05940783734, -183013.15552153057, -186304.49459606345, -186205.23049893745, -181294.61929733984, -187500.02235174447, 0.0, 0.0, 0.0, 193.0, 0.0, 0.0, 0.0, 0.0, 0.0, 0.0, 0.0, 0.0, 0.0, 1.7635829838249748E9, 0.0, 2025-11-19 16:09:43.824
57.0, -180200.45670276365, -183899.87157581706, -184190.71247466953, -183010.78623661833, -186301.81238672882, -186202.88356576965, -181291.46770137164, -187500.02235174447, 0.0, 0.0, 0.0, 193.0, 0.0, 0.0, 0.0, 0.0, 0.0, 0.0, 0.0, 0.0, 0.0, 1.7635829838290253E9, 0.0, 2025-11-19 16:09:43.829
58.0, -180200.45670276365, -183900.27390721726, -184191.13715781417, -183011.07680929624, -186302.05825591783, -186203.3529524032, -181291.31123916045, -187500.02235174447, 0.0, 0.0, 0.0, 193.0, 0.0, 0.0, 0.0, 0.0, 0.0, 0.0, 0.0, 0.0, 0.0, 1.7635829838320289E9, 0.0, 2025-11-19 16:09:43.832
59.0, -180196.81336841744, -183897.167014738, -184188.0749688238, -183007.96991681695, -186298.79490122735, -186200.51428085737, -181287.71260830315, -187500.02235174447, 0.0, 0.0, 0.0, 193.0, 0.0, 0.0, 0.0, 0.0, 0.0, 0.0, 0.0, 0.0, 0.0, 1.763582983836028E9, 0.0, 2025-11-19 16:09:43.836
60.0, -180195.27109805003, -183896.09413100412, -184186.97973334548, -183007.00879180536, -186297.58790702678, -186199.7543215459, -181286.1479861913, -187500.02235174447, 0.0, 0.0, 0.0, 193.0, 0.0, 0.0, 0.0, 0.0, 0.0, 0.0, 0.0, 0.0, 0.0, 1.763582983840032E9, 0.0, 2025-11-19 16:09:43.840
61.0, -180196.05340910595, -183897.32347694915, -184188.23143103498, -183008.05932379476, -186298.63843901615, -186201.1401297021, -181286.6397245693, -187500.02235174447, 0.0, 0.0, 0.0, 193.0, 0.0, 0.0, 0.0, 0.0, 0.0, 0.0, 0.0, 0.0, 0.0, 1.7635829838440292E9, 0.0, 2025-11-19 16:09:43.844
62.0, -180194.64524920526, -183896.49646240432, -184187.24795427895, -183007.00879180536, -186297.4314448156, -186200.2460599239, -181285.03039896852, -187500.02235174447, 0.0, 0.0, 0.0, 193.0, 0.0, 0.0, 0.0, 0.0, 0.0, 0.0, 0.0, 0.0, 0.0, 1.7635829838480773E9, 0.0, 2025-11-19 16:09:43.848
63.0, -180193.2370893046, -183895.66944785946, -184186.3762362452, -183006.22648074944, -186296.53737503738, -186199.66491456807, -181283.77870127902, -187500.02235174447, 0.0, 0.0, 0.0, 193.0, 0.0, 0.0, 0.0, 0.0, 0.0, 0.0, 0.0, 0.0, 0.0, 1.7635829838530214E9, 0.0, 2025-11-19 16:09:43.853
64.0, -180189.12436832482, -183892.09316874662, -184182.93406759907, -183002.7396086144, -186292.93874418008, -186196.37920813315, -181279.82244251043, -187500.02235174447, 0.0, 0.0, 0.0, 193.0, 0.0, 0.0, 0.0, 0.0, 0.0, 0.0, 0.0, 0.0, 0.0, 1.7635829838570223E9, 0.0, 2025-11-19 16:09:43.857
65.0, -180189.6384584473, -183893.14370073602, -184183.89519261065, -183003.700733626, -186293.60929651372, -186197.38503663364, -181280.0906634439, -187500.02235174447, 0.0, 0.0, 0.0, 193.0, 0.0, 0.0, 0.0, 0.0, 0.0, 0.0, 0.0, 0.0, 0.0, 1.7635829838600397E9, 0.0, 2025-11-19 16:09:43.860
66.0, -180190.80074915895, -183894.57421238115, -184185.41511123363, -183005.10889352666, -186294.90569769213, -186199.06141746778, -181280.96238147764, -187500.02235174447, 0.0, 0.0, 0.0, 193.0, 0.0, 0.0, 0.0, 0.0, 0.0, 0.0, 0.0, 0.0, 0.0, 1.763582983864049E9, 0.0, 2025-11-19 16:09:43.864
67.0, -180188.92320262472, -183893.23310771384, -184184.05165482184, -183003.76778885935, -186293.40813081362, -186197.78736803384, -181278.9507244767, -187500.02235174447, 0.0, 0.0, 0.0, 193.0, 0.0, 0.0, 0.0, 0.0, 0.0, 0.0, 0.0, 0.0, 0.0, 1.7635829838680544E9, 0.0, 2025-11-19 16:09:43.868
68.0, -180187.0903595794, -183891.93670653543, -184182.8223088768, -183002.42668419203, -186292.0670261463, -186196.91565000007, -181277.25199189808, -187500.02235174447, 0.0, 0.0, 0.0, 193.0, 0.0, 0.0, 0.0, 0.0, 0.0, 0.0, 0.0, 0.0, 0.0, 1.7635829838720603E9, 0.0, 2025-11-19 16:09:43.872
69.0, -180185.86101363433, -183891.17674722394, -184182.08470130977, -183001.6443731361, -186291.19530811254, -186196.4015598776, -181275.86618374183, -187500.02235174447, 0.0, 0.0, 0.0, 193.0, 0.0, 0.0, 0.0, 0.0, 0.0, 0.0, 0.0, 0.0, 0.0, 1.7635829838761032E9, 0.0, 2025-11-19 16:09:43.876
70.0, -180182.50825196604, -183888.33807567813, -184179.13427104166, -182998.7386463569, -186288.13311912218, -186193.65229530958, -181272.35695986237, -187500.02235174447, 0.0, 0.0, 0.0, 193.0, 0.0, 0.0, 0.0, 0.0, 0.0, 0.0, 0.0, 0.0, 0.0, 1.7635829838811576E9, 0.0, 2025-11-19 16:09:43.881
71.0, -180182.41884498822, -183888.69570358942, -184179.46954720851, -182999.0962742682, -186288.28958133337, -186194.1440336876, -181272.11109067334, -187500.02235174447, 0.0, 0.0, 0.0, 193.0, 0.0, 0.0, 0.0, 0.0, 0.0, 0.0, 0.0, 0.0, 0.0, 1.763582983884081E9, 0.0, 2025-11-19 16:09:43.884
72.0, -180181.45771997664, -183888.27102044478, -184179.08956755276, -182998.76099810135, -186287.730787722, -186193.92051624306, -181271.3958348508, -187500.02235174447, 0.0, 0.0, 0.0, 193.0, 0.0, 0.0, 0.0, 0.0, 0.0, 0.0, 0.0, 0.0, 0.0, 1.7635829838881438E9, 0.0, 2025-11-19 16:09:43.888
73.0, -180179.89309786478, -183887.33224717763, -184178.03903556336, -182997.73281785642, -186286.5684970103, -186193.0935016982, -181269.76415750553, -187500.02235174447, 0.0, 0.0, 0.0, 193.0, 0.0, 0.0, 0.0, 0.0, 0.0, 0.0, 0.0, 0.0, 0.0, 1.7635829838921373E9, 0.0, 2025-11-19 16:09:43.892
74.0, -180177.45675771913, -183885.27588668774, -184176.00502681793, -182995.5423468998, -186284.2215638425, -186191.17125167506, -181266.94783770418, -187500.02235174447, 0.0, 0.0, 0.0, 193.0, 0.0, 0.0, 0.0, 0.0, 0.0, 0.0, 0.0, 0.0, 0.0, 1.7635829838961666E9, 0.0, 2025-11-19 16:09:43.896
75.0, -180172.2264495166, -183880.5596686077, -184171.2664569934, -182990.80377707529, -186279.30418006232, -186186.70090278398, -181261.6728260127, -187500.02235174447, 0.0, 0.0, 0.0, 193.0, 0.0, 0.0, 0.0, 0.0, 0.0, 0.0, 0.0, 0.0, 0.0, 1.7635829839001665E9, 0.0, 2025-11-19 16:09:43.900
76.0, -180173.85812686183, -183882.5936773531, -184173.3675209722, -182992.88248930962, -186281.3605405522, -186189.0478359518, -181263.25979986906, -187500.02235174447, 0.0, 0.0, 0.0, 193.0, 0.0, 0.0, 0.0, 0.0, 0.0, 0.0, 0.0, 0.0, 0.0, 1.7635829839043202E9, 0.0, 2025-11-19 16:09:43.904
77.0, -180173.09816755037, -183882.39251165302, -184173.25576224993, -182992.703675354, -186280.98056089648, -186189.0478359518, -181262.45513706867, -187500.02235174447, 0.0, 0.0, 0.0, 193.0, 0.0, 0.0, 0.0, 0.0, 0.0, 0.0, 0.0, 0.0, 0.0, 1.7635829839081943E9, 0.0, 2025-11-19 16:09:43.908
78.0, -180171.6229524163, -183881.409034897, -184172.24993374944, -182991.63079162012, -186279.8629736737, -186188.15376617358, -181260.86816321232, -187500.02235174447, 0.0, 0.0, 0.0, 193.0, 0.0, 0.0, 0.0, 0.0, 0.0, 0.0, 0.0, 0.0, 0.0, 1.7635829839121697E9, 0.0, 2025-11-19 16:09:43.912
79.0, -180170.0806820489, -183880.47026162987, -184171.1770500156, -182990.446149164, -186278.65597947311, -186187.32675162875, -181259.21413412265, -187500.02235174447, 0.0, 0.0, 0.0, 193.0, 0.0, 0.0, 0.0, 0.0, 0.0, 0.0, 0.0, 0.0, 0.0, 1.7635829839151547E9, 0.0, 2025-11-19 16:09:43.915
80.0, -180166.95143782516, -183877.83275578413, -184168.5171924254, -182987.85334680718, -186275.83965967176, -186184.91276322756, -181256.19664862117, -187500.02235174447, 0.0, 0.0, 0.0, 193.0, 0.0, 0.0, 0.0, 0.0, 0.0, 0.0, 0.0, 0.0, 0.0, 1.7635829839203267E9, 0.0, 2025-11-19 16:09:43.920
81.0, -180166.05736804692, -183877.43042438393, -184168.13721276965, -182987.42866366252, -186275.30321780482, -186184.62219054965, -181255.2355236096, -187500.02235174447, 0.0, 0.0, 0.0, 193.0, 0.0, 0.0, 0.0, 0.0, 0.0, 0.0, 0.0, 0.0, 0.0, 1.7635829839241493E9, 0.0, 2025-11-19 16:09:43.924
82.0, -180166.7279203806, -183878.52565986227, -184169.1206895257, -182988.47919565192, -186276.13023234968, -186185.82918475024, -181255.6378550098, -187500.02235174447, 0.0, 0.0, 0.0, 193.0, 0.0, 0.0, 0.0, 0.0, 0.0, 0.0, 0.0, 0.0, 0.0, 1.7635829839281723E9, 0.0, 2025-11-19 16:09:43.928
83.0, -180163.8668970903, -183876.11167146108, -184166.70670112452, -182986.0428555063, -186273.6044852262, -186183.59401030472, -181252.59801776387, -187500.02235174447, 0.0, 0.0, 0.0, 193.0, 0.0, 0.0, 0.0, 0.0, 0.0, 0.0, 0.0, 0.0, 0.0, 1.7635829839321582E9, 0.0, 2025-11-19 16:09:43.932
84.0, -180159.0612720324, -183871.7977847812, -184162.59398014474, -182981.8407275487, -186269.3129502908, -186179.68245502503, -181247.81474445044, -187500.02235174447, 0.0, 0.0, 0.0, 193.0, 0.0, 0.0, 0.0, 0.0, 0.0, 0.0, 0.0, 0.0, 0.0, 1.7635829839371767E9, 0.0, 2025-11-19 16:09:43.937
85.0, -180158.010740043, -183871.28369465872, -184162.214000489, -182981.3936926596, -186268.73180493497, -186179.45893758046, -181246.8759711833, -187500.02235174447, 0.0, 0.0, 0.0, 193.0, 0.0, 0.0, 0.0, 0.0, 0.0, 0.0, 0.0, 0.0, 0.0, 1.7635829839402125E9, 0.0, 2025-11-19 16:09:43.940
86.0, -180159.30714122142, -183873.07183421517, -184163.9127330676, -182983.07007349373, -186270.29642704685, -186181.38118760363, -181248.01591015054, -187500.02235174447, 0.0, 0.0, 0.0, 193.0, 0.0, 0.0, 0.0, 0.0, 0.0, 0.0, 0.0, 0.0, 0.0, 1.763582983943184E9, 0.0, 2025-11-19 16:09:43.943
87.0, -180158.50247842105, -183872.8036132817, -184163.55510515632, -182982.690093838, -186269.69292994656, -186181.13531841463, -181247.0324333945, -187500.02235174447, 0.0, 0.0, 0.0, 193.0, 0.0, 0.0, 0.0, 0.0, 0.0, 0.0, 0.0, 0.0, 0.0, 1.7635829839481966E9, 0.0, 2025-11-19 16:09:43.948
88.0, -180156.6696353757, -183871.48486035882, -184162.25870397792, -182981.34898917068, -186268.28477004587, -186180.08478642523, -181245.1772386047, -187500.02235174447, 0.0, 0.0, 0.0, 193.0, 0.0, 0.0, 0.0, 0.0, 0.0, 0.0, 0.0, 0.0, 0.0, 1.76358298395221E9, 0.0, 2025-11-19 16:09:43.952
89.0, -180154.5685713969, -183869.76377603578, -184160.78348884388, -182979.8290705477, -186266.5636857228, -186178.81073699126, -181243.0761746259, -187500.02235174447, 0.0, 0.0, 0.0, 193.0, 0.0, 0.0, 0.0, 0.0, 0.0, 0.0, 0.0, 0.0, 0.0, 1.7635829839562235E9, 0.0, 2025-11-19 16:09:43.956
90.0, -180152.266341718, -183867.93093299045, -184158.972997543, -182978.10798622467, -186264.57438046628, -186177.15670790157, -181240.66218622474, -187500.02235174447, 0.0, 0.0, 0.0, 193.0, 0.0, 0.0, 0.0, 0.0, 0.0, 0.0, 0.0, 0.0, 0.0, 1.7635829839602208E9, 0.0, 2025-11-19 16:09:43.960
91.0, -180152.37810044028, -183868.53443009072, -184159.53179115438, -182978.7338350694, -186264.93200837757, -186177.82726023524, -181240.77394494702, -187500.02235174447, 0.0, 0.0, 0.0, 193.0, 0.0, 0.0, 0.0, 0.0, 0.0, 0.0, 0.0, 0.0, 0.0, 1.763582983964227E9, 0.0, 2025-11-19 16:09:43.964
92.0, -180150.90288530625, -183867.72976729035, -184158.727128354, -182977.75035831338, -186263.94853162154, -186177.15670790157, -181239.41048853524, -187500.02235174447, 0.0, 0.0, 0.0, 193.0, 0.0, 0.0, 0.0, 0.0, 0.0, 0.0, 0.0, 0.0, 0.0, 1.7635829839672432E9, 0.0, 2025-11-19 16:09:43.967
93.0, -180148.64535911626, -183866.0533864562, -184157.05074751982, -182976.00692224587, -186262.1603920651, -186175.70384451197, -181237.17531408972, -187500.02235174447, 0.0, 0.0, 0.0, 193.0, 0.0, 0.0, 0.0, 0.0, 0.0, 0.0, 0.0, 0.0, 0.0, 1.7635829839712906E9, 0.0, 2025-11-19 16:09:43.971
94.0, -180149.271207961, -183867.3497876346, -184158.30244520932, -182977.21391644646, -186263.32268277678, -186177.15670790157, -181237.80116293445, -187500.02235174447, 0.0, 0.0, 0.0, 193.0, 0.0, 0.0, 0.0, 0.0, 0.0, 0.0, 0.0, 0.0, 0.0, 1.763582983976267E9, 0.0, 2025-11-19 16:09:43.976
95.0, -180149.94176029466, -183868.42267136846, -184159.464735921, -182978.35385541368, -186264.32851127727, -186178.45310907997, -181238.4270117792, -187500.02235174447, 0.0, 0.0, 0.0, 193.0, 0.0, 0.0, 0.0, 0.0, 0.0, 0.0, 0.0, 0.0, 0.0, 1.7635829839802804E9, 0.0, 2025-11-19 16:09:43.980
96.0, -180148.2206759716, -183867.17097367896, -184158.19068648704, -182977.12450946862, -186262.94270312105, -186177.42492883504, -181236.59416873386, -187500.02235174447, 0.0, 0.0, 0.0, 193.0, 0.0, 0.0, 0.0, 0.0, 0.0, 0.0, 0.0, 0.0, 0.0, 1.7635829839842556E9, 0.0, 2025-11-19 16:09:43.984
97.0, -180144.64439685876, -183864.13113643305, -184155.2626079634, -182974.10702396717, -186259.74640366394, -186174.65331252257, -181233.06259310993, -187500.02235174447, 0.0, 0.0, 0.0, 193.0, 0.0, 0.0, 0.0, 0.0, 0.0, 0.0, 0.0, 0.0, 0.0, 1.7635829839882555E9, 0.0, 2025-11-19 16:09:43.988
98.0, -180141.55985612393, -183861.67244454296, -184152.7592125844, -182971.51422161036, -186256.95243560703, -186172.28402761032, -181230.00040411955, -187500.02235174447, 0.0, 0.0, 0.0, 193.0, 0.0, 0.0, 0.0, 0.0, 0.0, 0.0, 0.0, 0.0, 0.0, 1.7635829839912727E9, 0.0, 2025-11-19 16:09:43.991
99.0, -180141.55985612393, -183862.0524241987, -184153.1615439846, -182971.91655301055, -186257.26536002939, -186172.95457994397, -181229.82159016392, -187500.02235174447, 0.0, 0.0, 0.0, 193.0, 0.0, 0.0, 0.0, 0.0, 0.0, 0.0, 0.0, 0.0, 0.0, 1.7635829839952784E9, 0.0, 2025-11-19 16:09:43.995
100.0, -180140.50932413453, -183861.35952012058, -184152.6251021177, -182971.2907041658, -186256.55010420684, -186172.52989679933, -181228.63694770777, -187500.02235174447, 0.0, 0.0, 0.0, 193.0, 0.0, 0.0, 0.0, 0.0, 0.0, 0.0, 0.0, 0.0, 0.0, 1.7635829839992988E9, 0.0, 2025-11-19 16:09:43.999
101.0, -180136.53071362147, -183858.0961654301, -184149.22763696048, -182967.96029424196, -186253.08558381625, -186169.35594908666, -181224.7253924281, -187500.02235174447, 0.0, 0.0, 0.0, 193.0, 0.0, 0.0, 0.0, 0.0, 0.0, 0.0, 0.0, 0.0, 0.0, 1.7635829840032735E9, 0.0, 2025-11-19 16:09:44.003
102.0, -180134.3178909204, -183856.41978459596, -184147.48420089297, -182966.19450642998, -186251.23038902646, -186167.85838220816, -181222.4231627492, -187500.02235174447, 0.0, 0.0, 0.0, 193.0, 0.0, 0.0, 0.0, 0.0, 0.0, 0.0, 0.0, 0.0, 0.0, 1.7635829840083332E9, 0.0, 2025-11-19 16:09:44.008
103.0, -180133.267358931, -183855.7939357512, -184146.9030555371, -182965.59100932968, -186250.47042971497, -186167.43369906352, -181221.21616854862, -187500.02235174447, 0.0, 0.0, 0.0, 193.0, 0.0, 0.0, 0.0, 0.0, 0.0, 0.0, 0.0, 0.0, 0.0, 1.7635829840123098E9, 0.0, 2025-11-19 16:09:44.012
104.0, -180131.23335018556, -183854.2963688727, -184145.3160816808, -182963.9816837289, -186248.68229015855, -186166.0478909073, -181219.0704010809, -187500.02235174447, 0.0, 0.0, 0.0, 193.0, 0.0, 0.0, 0.0, 0.0, 0.0, 0.0, 0.0, 0.0, 0.0, 1.7635829840163217E9, 0.0, 2025-11-19 16:09:44.016
105.0, -180130.96512925212, -183854.47518282835, -184145.6066543587, -182964.31695989575, -186248.83875236975, -186166.47257405194, -181218.75747665853, -187500.02235174447, 0.0, 0.0, 0.0, 193.0, 0.0, 0.0, 0.0, 0.0, 0.0, 0.0, 0.0, 0.0, 0.0, 1.7635829840192995E9, 0.0, 2025-11-19 16:09:44.019
106.0, -180130.96512925212, -183855.05632818418, -184146.18779971456, -182964.92045699604, -186249.30813900332, -186167.27723685233, -181218.8245318919, -187500.02235174447, 0.0, 0.0, 0.0, 193.0, 0.0, 0.0, 0.0, 0.0, 0.0, 0.0, 0.0, 0.0, 0.0, 1.7635829840233324E9, 0.0, 2025-11-19 16:09:44.023
107.0, -180127.88058851726, -183852.41882233846, -184143.59499735775, -182962.21589591695, -186246.49181920194, -186164.81854496224, -181215.5835289459, -187500.02235174447, 0.0, 0.0, 0.0, 193.0, 0.0, 0.0, 0.0, 0.0, 0.0, 0.0, 0.0, 0.0, 0.0, 1.7635829840273244E9, 0.0, 2025-11-19 16:09:44.027
108.0, -180125.95833849412, -183850.89890371548, -184142.14213396815, -182960.62892206063, -186244.79308662334, -186163.3880333171, -181213.46011322262, -187500.02235174447, 0.0, 0.0, 0.0, 193.0, 0.0, 0.0, 0.0, 0.0, 0.0, 0.0, 0.0, 0.0, 0.0, 1.7635829840313563E9, 0.0, 2025-11-19 16:09:44.031
109.0, -180124.55017859343, -183849.893075215, -184141.13630546766, -182959.69014879348, -186243.74255463394, -186162.62807400562, -181212.00724983303, -187500.02235174447, 0.0, 0.0, 0.0, 193.0, 0.0, 0.0, 0.0, 0.0, 0.0, 0.0, 0.0, 0.0, 0.0, 1.7635829840363696E9, 0.0, 2025-11-19 16:09:44.036
110.0, -180123.58905358185, -183849.46839207035, -184140.68927057856, -182959.24311390438, -186243.09435404473, -186162.44926005, -181211.04612482144, -187500.02235174447, 0.0, 0.0, 0.0, 193.0, 0.0, 0.0, 0.0, 0.0, 0.0, 0.0, 0.0, 0.0, 0.0, 1.7635829840403447E9, 0.0, 2025-11-19 16:09:44.040
111.0, -180120.1692366802, -183846.60736878007, -184137.82824728827, -182956.31503538074, -186240.07686854326, -186159.65529199308, -181207.4698457086, -187500.02235174447, 0.0, 0.0, 0.0, 193.0, 0.0, 0.0, 0.0, 0.0, 0.0, 0.0, 0.0, 0.0, 0.0, 1.7635829840443664E9, 0.0, 2025-11-19 16:09:44.044
112.0, -180119.05164945743, -183845.91446470196, -184137.04593623235, -182955.5327243248, -186239.1157435317, -186158.9400361705, -181205.99463057454, -187500.02235174447, 0.0, 0.0, 0.0, 193.0, 0.0, 0.0, 0.0, 0.0, 0.0, 0.0, 0.0, 0.0, 0.0, 1.7635829840473783E9, 0.0, 2025-11-19 16:09:44.047
113.0, -180120.012774469, -183847.34497634709, -184138.49879962194, -182957.00793945885, -186240.36744122117, -186160.68347223802, -181206.88870035278, -187500.02235174447, 0.0, 0.0, 0.0, 193.0, 0.0, 0.0, 0.0, 0.0, 0.0, 0.0, 0.0, 0.0, 0.0, 1.7635829840514092E9, 0.0, 2025-11-19 16:09:44.051
114.0, -180118.53755933495, -183846.47325831334, -184137.67178507708, -182956.09151793618, -186239.38396446515, -186160.01291990434, -181205.4134852187, -187500.02235174447, 0.0, 0.0, 0.0, 193.0, 0.0, 0.0, 0.0, 0.0, 0.0, 0.0, 0.0, 0.0, 0.0, 1.763582984055389E9, 0.0, 2025-11-19 16:09:44.055
115.0, -180116.1682744227, -183844.57336003464, -184135.77188679838, -182954.10221267966, -186237.23819699744, -186158.22478034793, -181202.91008983972, -187500.02235174447, 0.0, 0.0, 0.0, 193.0, 0.0, 0.0, 0.0, 0.0, 0.0, 0.0, 0.0, 0.0, 0.0, 1.7635829840593965E9, 0.0, 2025-11-19 16:09:44.059
116.0, -180114.514245333, -183843.23225536733, -184134.43078213106, -182952.67170103453, -186235.74063011893, -186157.10719312518, -181200.98783981657, -187500.02235174447, 0.0, 0.0, 0.0, 193.0, 0.0, 0.0, 0.0, 0.0, 0.0, 0.0, 0.0, 0.0, 0.0, 1.7635829840644047E9, 0.0, 2025-11-19 16:09:44.064
117.0, -180113.3743063658, -183842.56170303366, -184133.78258154186, -182952.02350044533, -186234.958319063, -186156.66015823605, -181199.7137903826, -187500.02235174447, 0.0, 0.0, 0.0, 193.0, 0.0, 0.0, 0.0, 0.0, 0.0, 0.0, 0.0, 0.0, 0.0, 1.7635829840683973E9, 0.0, 2025-11-19 16:09:44.068
118.0, -180110.6697452867, -183840.32652858814, -184131.52505535187, -182949.8330294887, -186232.54433066183, -186154.693204724, -181196.98687755907, -187500.02235174447, 0.0, 0.0, 0.0, 193.0, 0.0, 0.0, 0.0, 0.0, 0.0, 0.0, 0.0, 0.0, 0.0, 1.7635829840714166E9, 0.0, 2025-11-19 16:09:44.071
119.0, -180108.523977819, -183838.6948512429, -184129.91572975108, -182948.11194516564, -186230.7561911054, -186153.1956378455, -181194.79640660246, -187500.02235174447, 0.0, 0.0, 0.0, 193.0, 0.0, 0.0, 0.0, 0.0, 0.0, 0.0, 0.0, 0.0, 0.0, 1.7635829840754316E9, 0.0, 2025-11-19 16:09:44.075
120.0, -180108.4122190967, -183839.05247915417, -184130.25100591793, -182948.40251784355, -186230.93500506104, -186153.5979692457, -181194.4164269467, -187500.02235174447, 0.0, 0.0, 0.0, 193.0, 0.0, 0.0, 0.0, 0.0, 0.0, 0.0, 0.0, 0.0, 0.0, 1.7635829840794315E9, 0.0, 2025-11-19 16:09:44.079
121.0, -180108.14399816323, -183839.16423787645, -184130.29570940684, -182948.55898005475, -186230.84559808322, -186153.86619017913, -181193.87998507978, -187500.02235174447, 0.0, 0.0, 0.0, 193.0, 0.0, 0.0, 0.0, 0.0, 0.0, 0.0, 0.0, 0.0, 0.0, 1.7635829840834267E9, 0.0, 2025-11-19 16:09:44.083
122.0, -180107.49579757403, -183839.05247915417, -184130.31806115128, -182948.51427656584, -186230.64443238312, -186154.06735587923, -181193.23178449058, -187500.02235174447, 0.0, 0.0, 0.0, 193.0, 0.0, 0.0, 0.0, 0.0, 0.0, 0.0, 0.0, 0.0, 0.0, 1.763582984087467E9, 0.0, 2025-11-19 16:09:44.087
123.0, -180105.23827138403, -183837.35374657557, -184128.59697682824, -182946.65908177604, -186228.78923759333, -186152.435678534, -181190.8624995783, -187500.02235174447, 0.0, 0.0, 0.0, 193.0, 0.0, 0.0, 0.0, 0.0, 0.0, 0.0, 0.0, 0.0, 0.0, 1.7635829840924425E9, 0.0, 2025-11-19 16:09:44.092
124.0, -180102.73487600504, -183835.25268259677, -184126.45120936053, -182944.49096256387, -186226.37524919215, -186150.4463732775, -181188.20264198811, -187500.02235174447, 0.0, 0.0, 0.0, 193.0, 0.0, 0.0, 0.0, 0.0, 0.0, 0.0, 0.0, 0.0, 0.0, 1.763582984096464E9, 0.0, 2025-11-19 16:09:44.096
125.0, -180099.5609282924, -183832.57047326214, -184123.76900002587, -182941.76404974033, -186223.49187415742, -186147.9429778985, -181184.89458380875, -187500.02235174447, 0.0, 0.0, 0.0, 193.0, 0.0, 0.0, 0.0, 0.0, 0.0, 0.0, 0.0, 0.0, 0.0, 1.7635829840994549E9, 0.0, 2025-11-19 16:09:44.099
126.0, -180096.63284976876, -183830.2011883499, -184121.42206685807, -182939.35006133915, -186221.03318226733, -186145.8866174086, -181182.0559122629, -187500.02235174447, 0.0, 0.0, 0.0, 193.0, 0.0, 0.0, 0.0, 0.0, 0.0, 0.0, 0.0, 0.0, 0.0, 1.7635829841034489E9, 0.0, 2025-11-19 16:09:44.103
127.0, -180096.4093323242, -183830.60351975006, -184121.66793604707, -182939.61828227263, -186221.16729273408, -186146.35600404217, -181181.83239481837, -187500.02235174447, 0.0, 0.0, 0.0, 193.0, 0.0, 0.0, 0.0, 0.0, 0.0, 0.0, 0.0, 0.0, 0.0, 1.7635829841075191E9, 0.0, 2025-11-19 16:09:44.107
128.0, -180097.32575384688, -183831.9446244174, -184123.07609594776, -182940.9370351955, -186222.3072317013, -186147.80886743177, -181182.50294715204, -187500.02235174447, 0.0, 0.0, 0.0, 193.0, 0.0, 0.0, 0.0, 0.0, 0.0, 0.0, 0.0, 0.0, 0.0, 1.7635829841115093E9, 0.0, 2025-11-19 16:09:44.111
129.0, -180097.4151608247, -183832.43636279542, -184123.6572413036, -182941.49582880686, -186222.64250786812, -186148.5911784877, -181182.39118842976, -187500.02235174447, 0.0, 0.0, 0.0, 193.0, 0.0, 0.0, 0.0, 0.0, 0.0, 0.0, 0.0, 0.0, 0.0, 1.7635829841154857E9, 0.0, 2025-11-19 16:09:44.115
130.0, -180095.73877999053, -183831.25172033926, -184122.42789535856, -182940.3335380952, -186221.3461066897, -186147.5853499872, -181180.7148075956, -187500.02235174447, 0.0, 0.0, 0.0, 193.0, 0.0, 0.0, 0.0, 0.0, 0.0, 0.0, 0.0, 0.0, 0.0, 1.76358298411949E9, 0.0, 2025-11-19 16:09:44.119
131.0, -180093.6153642673, -183829.77650520523, -184120.79621801333, -182938.74656423886, -186219.6473741111, -186146.2442453199, -181178.6137436168, -187500.02235174447, 0.0, 0.0, 0.0, 193.0, 0.0, 0.0, 0.0, 0.0, 0.0, 0.0, 0.0, 0.0, 0.0, 1.7635829841245227E9, 0.0, 2025-11-19 16:09:44.124
132.0, -180090.84374795482, -183827.40722029295, -184118.56104356778, -182936.42198281552, -186217.16633047658, -186144.05377436327, -181175.73036858207, -187500.02235174447, 0.0, 0.0, 0.0, 193.0, 0.0, 0.0, 0.0, 0.0, 0.0, 0.0, 0.0, 0.0, 0.0, 1.763582984127499E9, 0.0, 2025-11-19 16:09:44.127
133.0, -180088.07213164237, -183825.0379353807, -184116.34822086673, -182934.05269790324, -186214.5958798642, -186141.93035864, -181172.75758656953, -187500.02235174447, 0.0, 0.0, 0.0, 193.0, 0.0, 0.0, 0.0, 0.0, 0.0, 0.0, 0.0, 0.0, 0.0, 1.7635829841314943E9, 0.0, 2025-11-19 16:09:44.131
134.0, -180084.07116938487, -183821.5510632457, -184112.9060522206, -182930.61052925713, -186211.01960075137, -186138.75641092737, -181168.84603128984, -187500.02235174447, 0.0, 0.0, 0.0, 193.0, 0.0, 0.0, 0.0, 0.0, 0.0, 0.0, 0.0, 0.0, 0.0, 1.7635829841356716E9, 0.0, 2025-11-19 16:09:44.135
135.0, -180083.89235542924, -183821.9980981348, -184113.26368013187, -182931.0352124018, -186211.33252517373, -186139.426963261, -181168.66721733418, -187500.02235174447, 0.0, 0.0, 0.0, 193.0, 0.0, 0.0, 0.0, 0.0, 0.0, 0.0, 0.0, 0.0, 0.0, 1.7635829841395357E9, 0.0, 2025-11-19 16:09:44.139
136.0, -180082.3053815729, -183820.9922696343, -184112.19079639803, -182930.00703215683, -186210.1031792287, -186138.4881899939, -181166.96848475558, -187500.02235174447, 0.0, 0.0, 0.0, 193.0, 0.0, 0.0, 0.0, 0.0, 0.0, 0.0, 0.0, 0.0, 0.0, 1.7635829841435237E9, 0.0, 2025-11-19 16:09:44.143
137.0, -180084.33939031835, -183823.42860977992, -184114.58243305475, -182932.3316135802, -186212.2936501853, -186140.94688188398, -181168.73427256756, -187500.02235174447, 0.0, 0.0, 0.0, 193.0, 0.0, 0.0, 0.0, 0.0, 0.0, 0.0, 0.0, 0.0, 0.0, 1.7635829841485415E9, 0.0, 2025-11-19 16:09:44.148
138.0, -180084.9428874186, -183824.61325223604, -184115.67766853306, -182933.49390429186, -186213.3441821747, -186142.3326900402, -181169.42717664567, -187500.02235174447, 0.0, 0.0, 0.0, 193.0, 0.0, 0.0, 0.0, 0.0, 0.0, 0.0, 0.0, 0.0, 0.0, 1.763582984151578E9, 0.0, 2025-11-19 16:09:44.151
139.0, -180082.57360250637, -183822.9368714019, -184114.04599118783, -182931.7281164799, -186211.51133912939, -186140.8798266506, -181167.30376092243, -187500.02235174447, 0.0, 0.0, 0.0, 193.0, 0.0, 0.0, 0.0, 0.0, 0.0, 0.0, 0.0, 0.0, 0.0, 1.7635829841546717E9, 0.0, 2025-11-19 16:09:44.154
140.0, -180080.2043175941, -183820.92521440092, -184112.14609290913, -182929.8282182012, -186209.3432199172, -186139.181094072, -181164.73331031005, -187500.02235174447, 0.0, 0.0, 0.0, 193.0, 0.0, 0.0, 0.0, 0.0, 0.0, 0.0, 0.0, 0.0, 0.0, 1.7635829841587453E9, 0.0, 2025-11-19 16:09:44.158
141.0, -180078.5502885044, -183819.5394062447, -184110.82733998625, -182928.3753548116, -186207.66683908307, -186137.86234114916, -181162.67694982016, -187500.02235174447, 0.0, 0.0, 0.0, 193.0, 0.0, 0.0, 0.0, 0.0, 0.0, 0.0, 0.0, 0.0, 0.0, 1.763582984163565E9, 0.0, 2025-11-19 16:09:44.163
142.0, -180075.04106462494, -183816.5442724877, -184107.72044750696, -182925.29081407678, -186204.4481878815, -186135.06837309225, -181159.0112637295, -187500.02235174447, 0.0, 0.0, 0.0, 193.0, 0.0, 0.0, 0.0, 0.0, 0.0, 0.0, 0.0, 0.0, 0.0, 1.7635829841675472E9, 0.0, 2025-11-19 16:09:44.167
143.0, -180072.49296575703, -183814.6890776979, -184105.8652527172, -182923.45797103143, -186202.5482896028, -186133.50375098037, -181156.57492358386, -187500.02235174447, 0.0, 0.0, 0.0, 193.0, 0.0, 0.0, 0.0, 0.0, 0.0, 0.0, 0.0, 0.0, 0.0, 1.763582984171552E9, 0.0, 2025-11-19 16:09:44.171
144.0, -180072.11298610127, -183814.86789165353, -184106.13347365064, -182923.5250262648, -186202.57064134727, -186133.8390271472, -181156.21729567257, -187500.02235174447, 0.0, 0.0, 0.0, 193.0, 0.0, 0.0, 0.0, 0.0, 0.0, 0.0, 0.0, 0.0, 0.0, 1.7635829841755924E9, 0.0, 2025-11-19 16:09:44.175
145.0, -180071.01775062297, -183814.15263583098, -184105.37351433915, -182922.7874186978, -186201.5871645912, -186133.1237713246, -181154.83148751635, -187500.02235174447, 0.0, 0.0, 0.0, 193.0, 0.0, 0.0, 0.0, 0.0, 0.0, 0.0, 0.0, 0.0, 0.0, 1.763582984179598E9, 0.0, 2025-11-19 16:09:44.179
146.0, -180070.77188143396, -183814.2420428088, -184105.52997655034, -182922.8768256756, -186201.5871645912, -186133.41434400255, -181154.27269390496, -187500.02235174447, 0.0, 0.0, 0.0, 193.0, 0.0, 0.0, 0.0, 0.0, 0.0, 0.0, 0.0, 0.0, 0.0, 1.7635829841826017E9, 0.0, 2025-11-19 16:09:44.182
147.0, -180067.70969244358, -183811.6939439409, -184103.13833989363, -182920.44048552998, -186199.06141746778, -186131.20152130147, -181151.32226363686, -187500.02235174447, 0.0, 0.0, 0.0, 193.0, 0.0, 0.0, 0.0, 0.0, 0.0, 0.0, 0.0, 0.0, 0.0, 1.7635829841875732E9, 0.0, 2025-11-19 16:09:44.187
148.0, -180067.46382325457, -183811.96216487433, -184103.3618573382, -182920.686354719, -186199.12847270115, -186131.7379631684, -181150.98698747004, -187500.02235174447, 0.0, 0.0, 0.0, 193.0, 0.0, 0.0, 0.0, 0.0, 0.0, 0.0, 0.0, 0.0, 0.0, 1.7635829841916163E9, 0.0, 2025-11-19 16:09:44.191
149.0, -180065.42981450915, -183810.35283927358, -184101.7525317374, -182918.98762214038, -186197.2956296558, -186130.24039628988, -181148.68475779114, -187500.02235174447, 0.0, 0.0, 0.0, 193.0, 0.0, 0.0, 0.0, 0.0, 0.0, 0.0, 0.0, 0.0, 0.0, 1.7635829841956048E9, 0.0, 2025-11-19 16:09:44.195
150.0, -180062.81466040786, -183808.25177529478, -184099.6514677586, -182916.79715118377, -186194.97104823246, -186128.2287392889, -181146.0025484565, -187500.02235174447, 0.0, 0.0, 0.0, 193.0, 0.0, 0.0, 0.0, 0.0, 0.0, 0.0, 0.0, 0.0, 0.0, 1.7635829841996143E9, 0.0, 2025-11-19 16:09:44.199
151.0, -180061.09357608482, -183807.134188072, -184098.5115287914, -182915.65721221652, -186193.6969987985, -186127.24526253287, -181144.4155746002, -187500.02235174447, 0.0, 0.0, 0.0, 193.0, 0.0, 0.0, 0.0, 0.0, 0.0, 0.0, 0.0, 0.0, 0.0, 1.7635829842036245E9, 0.0, 2025-11-19 16:09:44.203
152.0, -180060.53478247343, -183807.134188072, -184098.53388053583, -182915.65721221652, -186193.60759182068, -186127.49113172188, -181143.8120774999, -187500.02235174447, 0.0, 0.0, 0.0, 193.0, 0.0, 0.0, 0.0, 0.0, 0.0, 0.0, 0.0, 0.0, 0.0, 1.7635829842076268E9, 0.0, 2025-11-19 16:09:44.207
153.0, -180057.0479103384, -183804.0719990816, -184095.38228456763, -182912.5279679928, -186190.3442371302, -186124.49599796487, -181140.0569844314, -187500.02235174447, 0.0, 0.0, 0.0, 193.0, 0.0, 0.0, 0.0, 0.0, 0.0, 0.0, 0.0, 0.0, 0.0, 1.7635829842106328E9, 0.0, 2025-11-19 16:09:44.210
154.0, -180054.8574393818, -183802.30621126966, -184093.52708977784, -182910.6280697141, -186188.28787664033, -186122.7749136418, -181137.62064428578, -187500.02235174447, 0.0, 0.0, 0.0, 193.0, 0.0, 0.0, 0.0, 0.0, 0.0, 0.0, 0.0, 0.0, 0.0, 1.7635829842146337E9, 0.0, 2025-11-19 16:09:44.214
155.0, -180054.2986457704, -183802.19445254738, -184093.4600345445, -182910.44925575846, -186188.06435919576, -186122.90902410855, -181137.0618506744, -187500.02235174447, 0.0, 0.0, 0.0, 193.0, 0.0, 0.0, 0.0, 0.0, 0.0, 0.0, 0.0, 0.0, 0.0, 1.7635829842196372E9, 0.0, 2025-11-19 16:09:44.219
156.0, -180053.49398297002, -183802.01563859172, -184093.23651709993, -182910.29279354727, -186187.66202779557, -186122.9760793419, -181136.32424310737, -187500.02235174447, 0.0, 0.0, 0.0, 193.0, 0.0, 0.0, 0.0, 0.0, 0.0, 0.0, 0.0, 0.0, 0.0, 1.7635829842236693E9, 0.0, 2025-11-19 16:09:44.223
157.0, -180053.38222424773, -183802.35091475857, -184093.57179326678, -182910.6280697141, -186187.81849000676, -186123.3784107421, -181135.92191170718, -187500.02235174447, 0.0, 0.0, 0.0, 193.0, 0.0, 0.0, 0.0, 0.0, 0.0, 0.0, 0.0, 0.0, 0.0, 1.7635829842276793E9, 0.0, 2025-11-19 16:09:44.227
158.0, -180052.9575411031, -183802.19445254738, -184093.52708977784, -182910.44925575846, -186187.50556558438, -186123.3784107421, -181135.11724890678, -187500.02235174447, 0.0, 0.0, 0.0, 193.0, 0.0, 0.0, 0.0, 0.0, 0.0, 0.0, 0.0, 0.0, 0.0, 1.7635829842306993E9, 0.0, 2025-11-19 16:09:44.230
159.0, -180051.21410503556, -183801.05451358017, -184092.4095025551, -182909.24226155787, -186186.25386789488, -186122.46198921945, -181133.41851632818, -187500.02235174447, 0.0, 0.0, 0.0, 193.0, 0.0, 0.0, 0.0, 0.0, 0.0, 0.0, 0.0, 0.0, 0.0, 1.7635829842346988E9, 0.0, 2025-11-19 16:09:44.234
160.0, -180050.81177363536, -183801.2333275358, -184092.63301999963, -182909.4657790024, -186186.27621963935, -186122.90902410855, -181133.08324016133, -187500.02235174447, 0.0, 0.0, 0.0, 193.0, 0.0, 0.0, 0.0, 0.0, 0.0, 0.0, 0.0, 0.0, 0.0, 1.7635829842386873E9, 0.0, 2025-11-19 16:09:44.238
161.0, -180047.86134336726, -183798.66287692345, -184090.1519763651, -182906.98473536788, -186183.54930681578, -186120.51738745184, -181129.9539959376, -187500.02235174447, 0.0, 0.0, 0.0, 193.0, 0.0, 0.0, 0.0, 0.0, 0.0, 0.0, 0.0, 0.0, 0.0, 1.763582984242699E9, 0.0, 2025-11-19 16:09:44.242
162.0, -180046.2967212554, -183797.6346966785, -184088.9449821645, -182905.665982445, -186182.07409168174, -186119.3774484846, -181128.03174591443, -187500.02235174447, 0.0, 0.0, 0.0, 193.0, 0.0, 0.0, 0.0, 0.0, 0.0, 0.0, 0.0, 0.0, 0.0, 1.7635829842479143E9, 0.0, 2025-11-19 16:09:44.247
163.0, -180045.46970671054, -183797.29942051167, -184088.6097059977, -182905.33070627818, -186181.62705679264, -186119.19863452896, -181127.1600278807, -187500.02235174447, 0.0, 0.0, 0.0, 193.0, 0.0, 0.0, 0.0, 0.0, 0.0, 0.0, 0.0, 0.0, 0.0, 1.76358298425171E9, 0.0, 2025-11-19 16:09:44.251
164.0, -180043.9050845987, -183796.24888852227, -184087.67093273057, -182904.34722952216, -186180.50946956986, -186118.5280821953, -181125.66246100218, -187500.02235174447, 0.0, 0.0, 0.0, 193.0, 0.0, 0.0, 0.0, 0.0, 0.0, 0.0, 0.0, 0.0, 0.0, 1.7635829842557185E9, 0.0, 2025-11-19 16:09:44.255
165.0, -180043.1451252872, -183795.84655712207, -184087.33565656372, -182903.94489812196, -186180.01773119185, -186118.3269164952, -181124.72368773507, -187500.02235174447, 0.0, 0.0, 0.0, 193.0, 0.0, 0.0, 0.0, 0.0, 0.0, 0.0, 0.0, 0.0, 0.0, 1.7635829842587051E9, 0.0, 2025-11-19 16:09:44.258
166.0, -180041.22287526404, -183794.41604547694, -184085.81573794078, -182902.3579242656, -186178.25194337987, -186116.91875659453, -181122.4885132895, -187500.02235174447, 0.0, 0.0, 0.0, 193.0, 0.0, 0.0, 0.0, 0.0, 0.0, 0.0, 0.0, 0.0, 0.0, 1.7635829842627268E9, 0.0, 2025-11-19 16:09:44.262
167.0, -180037.37837521773, -183791.15269078646, -184082.46297627248, -182898.89340387506, -186174.65331252257, -186113.67775364852, -181118.4428475431, -187500.02235174447, 0.0, 0.0, 0.0, 193.0, 0.0, 0.0, 0.0, 0.0, 0.0, 0.0, 0.0, 0.0, 0.0, 1.7635829842667525E9, 0.0, 2025-11-19 16:09:44.266
168.0, -180034.80792460538, -183789.0739785521, -184080.47367101596, -182896.92645036298, -186172.50754505486, -186111.91196583654, -181115.87239693076, -187500.02235174447, 0.0, 0.0, 0.0, 193.0, 0.0, 0.0, 0.0, 0.0, 0.0, 0.0, 0.0, 0.0, 0.0, 1.7635829842707224E9, 0.0, 2025-11-19 16:09:44.270
169.0, -180034.80792460538, -183789.49866169677, -184080.87600241616, -182897.32878176318, -186172.68635901052, -186112.42605595902, -181115.76063820848, -187500.02235174447, 0.0, 0.0, 0.0, 193.0, 0.0, 0.0, 0.0, 0.0, 0.0, 0.0, 0.0, 0.0, 0.0, 1.7635829842757163E9, 0.0, 2025-11-19 16:09:44.275
170.0, -180031.745735615, -183786.88350759548, -184078.21614482597, -182894.62422068408, -186169.87003920914, -186109.92266058002, -181112.36317305127, -187500.02235174447, 0.0, 0.0, 0.0, 193.0, 0.0, 0.0, 0.0, 0.0, 0.0, 0.0, 0.0, 0.0, 0.0, 1.7635829842797236E9, 0.0, 2025-11-19 16:09:44.279
171.0, -180029.5329129139, -183785.14007152797, -184076.4950605029, -182892.92548810548, -186168.01484441935, -186108.40274195705, -181109.97153639456, -187500.02235174447, 0.0, 0.0, 0.0, 193.0, 0.0, 0.0, 0.0, 0.0, 0.0, 0.0, 0.0, 0.0, 0.0, 1.763582984283756E9, 0.0, 2025-11-19 16:09:44.283
172.0, -180027.65536637968, -183783.7766151162, -184075.1539558356, -182891.5173282048, -186166.56198102975, -186107.24045124536, -181108.0939898603, -187500.02235174447, 0.0, 0.0, 0.0, 193.0, 0.0, 0.0, 0.0, 0.0, 0.0, 0.0, 0.0, 0.0, 0.0, 1.7635829842867465E9, 0.0, 2025-11-19 16:09:44.286
173.0, -180028.12475301322, -183784.8271471056, -184076.204487825, -182892.50080496084, -186167.2995885968, -186108.3803902126, -181108.51867300496, -187500.02235174447, 0.0, 0.0, 0.0, 193.0, 0.0, 0.0, 0.0, 0.0, 0.0, 0.0, 0.0, 0.0, 0.0, 1.7635829842907836E9, 0.0, 2025-11-19 16:09:44.290
174.0, -180028.0353460354, -183785.2294785058, -184076.5397639918, -182892.70197066094, -186167.36664383014, -186108.76036986834, -181108.07163811586, -187500.02235174447, 0.0, 0.0, 0.0, 193.0, 0.0, 0.0, 0.0, 0.0, 0.0, 0.0, 0.0, 0.0, 0.0, 1.76358298429483E9, 0.0, 2025-11-19 16:09:44.294
175.0, -180024.2802529669, -183781.83201334858, -184073.1422988346, -182889.34920899264, -186163.7903647173, -186105.51936692232, -181104.0930276028, -187500.02235174447, 0.0, 0.0, 0.0, 193.0, 0.0, 0.0, 0.0, 0.0, 0.0, 0.0, 0.0, 0.0, 0.0, 1.763582984298784E9, 0.0, 2025-11-19 16:09:44.298
176.0, -180024.7943430894, -183782.88254533798, -184074.3492930352, -182890.53385144877, -186164.7961932178, -186106.86047158964, -181104.6965247031, -187500.02235174447, 0.0, 0.0, 0.0, 193.0, 0.0, 0.0, 0.0, 0.0, 0.0, 0.0, 0.0, 0.0, 0.0, 1.7635829843037913E9, 0.0, 2025-11-19 16:09:44.303
177.0, -180024.21319773357, -183782.79313836017, -184074.21518256847, -182890.39974098204, -186164.48326879542, -186106.90517507854, -181104.02597236945, -187500.02235174447, 0.0, 0.0, 0.0, 193.0, 0.0, 0.0, 0.0, 0.0, 0.0, 0.0, 0.0, 0.0, 0.0, 1.7635829843078053E9, 0.0, 2025-11-19 16:09:44.307
178.0, -180022.76033434397, -183781.8767168375, -184073.27640930135, -182889.37156073708, -186163.45508855046, -186106.18991925596, -181102.37194327975, -187500.02235174447, 0.0, 0.0, 0.0, 193.0, 0.0, 0.0, 0.0, 0.0, 0.0, 0.0, 0.0, 0.0, 0.0, 1.7635829843118083E9, 0.0, 2025-11-19 16:09:44.311
179.0, -180021.06160176537, -183780.64737089246, -184071.98000812295, -182888.03045606977, -186161.91281818305, -186104.96057331093, -181100.36028627877, -187500.02235174447, 0.0, 0.0, 0.0, 193.0, 0.0, 0.0, 0.0, 0.0, 0.0, 0.0, 0.0, 0.0, 0.0, 1.7635829843147807E9, 0.0, 2025-11-19 16:09:44.314
180.0, -180020.52515989842, -183780.58031565908, -184071.95765637848, -182888.03045606977, -186161.73400422742, -186105.11703552213, -181099.89089964522, -187500.02235174447, 0.0, 0.0, 0.0, 193.0, 0.0, 0.0, 0.0, 0.0, 0.0, 0.0, 0.0, 0.0, 0.0, 1.7635829843187964E9, 0.0, 2025-11-19 16:09:44.318
181.0, -180017.82059881935, -183778.43454819138, -184069.76718542186, -182885.83998511315, -186159.47647803742, -186103.15008201005, -181097.25339379947, -187500.02235174447, 0.0, 0.0, 0.0, 193.0, 0.0, 0.0, 0.0, 0.0, 0.0, 0.0, 0.0, 0.0, 0.0, 1.7635829843227923E9, 0.0, 2025-11-19 16:09:44.322
182.0, -180014.46783715105, -183775.50646966774, -184066.90616213158, -182882.80014786724, -186156.32488206922, -186100.3337622087, -181093.52065247545, -187500.02235174447, 0.0, 0.0, 0.0, 193.0, 0.0, 0.0, 0.0, 0.0, 0.0, 0.0, 0.0, 0.0, 0.0, 1.7635829843268244E9, 0.0, 2025-11-19 16:09:44.326
183.0, -180013.14908422818, -183774.56769640063, -184065.9897406089, -182881.72726413337, -186155.0508326353, -186099.4843959194, -181091.79956815238, -187500.02235174447, 0.0, 0.0, 0.0, 193.0, 0.0, 0.0, 0.0, 0.0, 0.0, 0.0, 0.0, 0.0, 0.0, 1.7635829843320277E9, 0.0, 2025-11-19 16:09:44.332
184.0, -180010.15395047117, -183772.26546672173, -184063.5981039522, -182879.35797922112, -186152.50273376738, -186097.2715732183, -181088.93854486212, -187500.02235174447, 0.0, 0.0, 0.0, 193.0, 0.0, 0.0, 0.0, 0.0, 0.0, 0.0, 0.0, 0.0, 0.0, 1.763582984335834E9, 0.0, 2025-11-19 16:09:44.335
185.0, -180009.90808128216, -183772.66779812193, -184063.8439731412, -182879.76031062132, -186152.7486029564, -186097.89742206305, -181088.73737916202, -187500.02235174447, 0.0, 0.0, 0.0, 193.0, 0.0, 0.0, 0.0, 0.0, 0.0, 0.0, 0.0, 0.0, 0.0, 1.7635829843388112E9, 0.0, 2025-11-19 16:09:44.338
186.0, -180010.31041268236, -183773.4277574334, -184064.62628419715, -182880.52026993278, -186153.37445180112, -186098.8808988191, -181088.93854486212, -187500.02235174447, 0.0, 0.0, 0.0, 193.0, 0.0, 0.0, 0.0, 0.0, 0.0, 0.0, 0.0, 0.0, 0.0, 1.7635829843428519E9, 0.0, 2025-11-19 16:09:44.342
187.0, -180009.8857295377, -183773.36070220004, -184064.6486359416, -182880.40851121052, -186153.0838791232, -186098.85854707463, -181088.17858555063, -187500.02235174447, 0.0, 0.0, 0.0, 193.0, 0.0, 0.0, 0.0, 0.0, 0.0, 0.0, 0.0, 0.0, 0.0, 1.7635829843468528E9, 0.0, 2025-11-19 16:09:44.346
188.0, -180006.80118880287, -183770.8796585655, -184062.1452405626, -182877.86041234262, -186150.46872502193, -186096.48926216236, -181085.13874830471, -187500.02235174447, 0.0, 0.0, 0.0, 193.0, 0.0, 0.0, 0.0, 0.0, 0.0, 0.0, 0.0, 0.0, 0.0, 1.763582984350845E9, 0.0, 2025-11-19 16:09:44.350
189.0, -180004.36484865725, -183768.93505679787, -184060.31239751726, -182875.89345883054, -186148.36766104313, -186094.8352330727, -181082.63535292572, -187500.02235174447, 0.0, 0.0, 0.0, 193.0, 0.0, 0.0, 0.0, 0.0, 0.0, 0.0, 0.0, 0.0, 0.0, 1.763582984355024E9, 0.0, 2025-11-19 16:09:44.355
190.0, -180005.0354009909, -183769.96323704283, -184061.27352252885, -182876.89928733103, -186149.21702733243, -186096.1316342511, -181083.08238781482, -187500.02235174447, 0.0, 0.0, 0.0, 193.0, 0.0, 0.0, 0.0, 0.0, 0.0, 0.0, 0.0, 0.0, 0.0, 1.7635829843588555E9, 0.0, 2025-11-19 16:09:44.358
191.0, -180003.31431666785, -183768.71153935333, -184059.88771437263, -182875.58053440816, -186147.65240522058, -186094.96934353941, -181081.07073081384, -187500.02235174447, 0.0, 0.0, 0.0, 193.0, 0.0, 0.0, 0.0, 0.0, 0.0, 0.0, 0.0, 0.0, 0.0, 1.7635829843640015E9, 0.0, 2025-11-19 16:09:44.364
192.0, -180000.58740384429, -183766.61047537453, -184057.65253992708, -182873.32300821817, -186145.2384168194, -186092.84592781615, -181078.2991145014, -187500.02235174447, 0.0, 0.0, 0.0, 193.0, 0.0, 0.0, 0.0, 0.0, 0.0, 0.0, 0.0, 0.0, 0.0, 1.7635829843668976E9, 0.0, 2025-11-19 16:09:44.366
193.0, -179998.91102301015, -183765.44818466285, -184056.46789747095, -182872.3171797177, -186144.0314226188, -186091.9295062935, -181076.62273366723, -187500.02235174447, 0.0, 0.0, 0.0, 193.0, 0.0, 0.0, 0.0, 0.0, 0.0, 0.0, 0.0, 0.0, 0.0, 1.7635829843708835E9, 0.0, 2025-11-19 16:09:44.370
194.0, -180000.14036895518, -183767.05751026364, -184058.21133353846, -182873.9712088074, -186145.57369298622, -186093.8741080611, -181077.74032089, -187500.02235174447, 0.0, 0.0, 0.0, 193.0, 0.0, 0.0, 0.0, 0.0, 0.0, 0.0, 0.0, 0.0, 0.0, 1.7635829843750408E9, 0.0, 2025-11-19 16:09:44.375
195.0, -179998.86631952124, -183766.18579222987, -184057.33961550472, -182872.94302856244, -186144.3443470412, -186093.0694452607, -181076.10864354475, -187500.02235174447, 0.0, 0.0, 0.0, 193.0, 0.0, 0.0, 0.0, 0.0, 0.0, 0.0, 0.0, 0.0, 0.0, 1.7635829843788924E9, 0.0, 2025-11-19 16:09:44.378
196.0, -179994.37361888573, -183762.20718171683, -184053.45041196948, -182868.94206630494, -186140.1869225725, -186089.24729695884, -181071.45948069805, -187500.02235174447, 0.0, 0.0, 0.0, 193.0, 0.0, 0.0, 0.0, 0.0, 0.0, 0.0, 0.0, 0.0, 0.0, 1.7635829843829052E9, 0.0, 2025-11-19 16:09:44.382
197.0, -179993.54660434087, -183761.9836642723, -184053.13748754712, -182868.62914188256, -186139.89634989458, -186089.2249452144, -181070.67716964212, -187500.02235174447, 0.0, 0.0, 0.0, 193.0, 0.0, 0.0, 0.0, 0.0, 0.0, 0.0, 0.0, 0.0, 0.0, 1.763582984387006E9, 0.0, 2025-11-19 16:09:44.387
198.0, -179991.71376129554, -183760.7319665828, -184051.88578985762, -182867.3103889597, -186138.3764312716, -186088.04030275828, -181068.7996231079, -187500.02235174447, 0.0, 0.0, 0.0, 193.0, 0.0, 0.0, 0.0, 0.0, 0.0, 0.0, 0.0, 0.0, 0.0, 1.7635829843919792E9, 0.0, 2025-11-19 16:09:44.391
199.0, -179990.41736011714, -183759.7261380823, -184050.94701659048, -182866.2598569703, -186137.2811957933, -186087.21328821342, -181067.235000996, -187500.02235174447, 0.0, 0.0, 0.0, 193.0, 0.0, 0.0, 0.0, 0.0, 0.0, 0.0, 0.0, 0.0, 0.0, 1.7635829843949068E9, 0.0, 2025-11-19 16:09:44.394
200.0, -179989.4338833611, -183759.14499272645, -184050.27646425684, -182865.67871161446, -186136.45418124847, -186086.78860506878, -181065.9385998176, -187500.02235174447, 0.0, 0.0, 0.0, 193.0, 0.0, 0.0, 0.0, 0.0, 0.0, 0.0, 0.0, 0.0, 0.0, 1.7635829843989503E9, 0.0, 2025-11-19 16:09:44.398
201.0, -179988.36099962724, -183758.74266132625, -184049.85178111217, -182865.23167672535, -186135.85068414817, -186086.58743936868, -181065.02217829492, -187500.02235174447, 0.0, 0.0, 0.0, 193.0, 0.0, 0.0, 0.0, 0.0, 0.0, 0.0, 0.0, 0.0, 0.0, 1.7635829844029455E9, 0.0, 2025-11-19 16:09:44.402
202.0, -179988.22688916052, -183759.2343997043, -184050.38822297912, -182865.63400812555, -186136.0742015927, -186087.25799170232, -181064.91041957267, -187500.02235174447, 0.0, 0.0, 0.0, 193.0, 0.0, 0.0, 0.0, 0.0, 0.0, 0.0, 0.0, 0.0, 0.0, 1.7635829844069424E9, 0.0, 2025-11-19 16:09:44.406
203.0, -179986.84108100427, -183758.20621945933, -184049.40474622307, -182864.5611243917, -186134.84485564768, -186086.4756806464, -181063.2340387385, -187500.02235174447, 0.0, 0.0, 0.0, 193.0, 0.0, 0.0, 0.0, 0.0, 0.0, 0.0, 0.0, 0.0, 0.0, 1.763582984410975E9, 0.0, 2025-11-19 16:09:44.410
204.0, -179985.16470017013, -183757.0215770032, -184048.19775202248, -182863.24237146883, -186133.34728876918, -186085.29103819028, -181061.244733482, -187500.02235174447, 0.0, 0.0, 0.0, 193.0, 0.0, 0.0, 0.0, 0.0, 0.0, 0.0, 0.0, 0.0, 0.0, 1.7635829844149313E9, 0.0, 2025-11-19 16:09:44.414
205.0, -179983.7788920139, -183756.06045199162, -184047.23662701092, -182862.3259499462, -186132.2744050353, -186084.48637538988, -181059.72481485902, -187500.02235174447, 0.0, 0.0, 0.0, 193.0, 0.0, 0.0, 0.0, 0.0, 0.0, 0.0, 0.0, 0.0, 0.0, 1.7635829844189491E9, 0.0, 2025-11-19 16:09:44.418
206.0, -179983.7788920139, -183756.619245603, -184047.92953108903, -182862.99650227983, -186132.85555039116, -186085.35809342362, -181059.81422183683, -187500.02235174447, 0.0, 0.0, 0.0, 193.0, 0.0, 0.0, 0.0, 0.0, 0.0, 0.0, 0.0, 0.0, 0.0, 1.7635829844219513E9, 0.0, 2025-11-19 16:09:44.421
207.0, -179982.30367687985, -183755.65812059143, -184046.96840607745, -182861.78950807924, -186131.71561142395, -186084.4640236454, -181058.1825444916, -187500.02235174447, 0.0, 0.0, 0.0, 193.0, 0.0, 0.0, 0.0, 0.0, 0.0, 0.0, 0.0, 0.0, 0.0, 1.7635829844259808E9, 0.0, 2025-11-19 16:09:44.425
208.0, -179980.06850243433, -183753.89233277945, -184045.0908595432, -182859.93431328944, -186129.70395442296, -186082.675884089, -181055.6344456237, -187500.02235174447, 0.0, 0.0, 0.0, 193.0, 0.0, 0.0, 0.0, 0.0, 0.0, 0.0, 0.0, 0.0, 0.0, 1.763582984430959E9, 0.0, 2025-11-19 16:09:44.430
209.0, -179976.44751983255, -183750.7183850668, -184041.8945600861, -182856.8050690657, -186126.30648926576, -186079.680750332, -181051.94640778858, -187500.02235174447, 0.0, 0.0, 0.0, 193.0, 0.0, 0.0, 0.0, 0.0, 0.0, 0.0, 0.0, 0.0, 0.0, 1.76358298443501E9, 0.0, 2025-11-19 16:09:44.435
210.0, -179975.73226401, -183750.58427460009, -184041.71574613045, -182856.73801383234, -186126.06062007675, -186079.85956428762, -181051.3876141772, -187500.02235174447, 0.0, 0.0, 0.0, 193.0, 0.0, 0.0, 0.0, 0.0, 0.0, 0.0, 0.0, 0.0, 0.0, 1.7635829844389849E9, 0.0, 2025-11-19 16:09:44.438
211.0, -179973.2735721199, -183748.59496934354, -184039.8381995962, -182854.7040050869, -186123.87014912014, -186077.98201775338, -181048.79481182038, -187500.02235174447, 0.0, 0.0, 0.0, 193.0, 0.0, 0.0, 0.0, 0.0, 0.0, 0.0, 0.0, 0.0, 0.0, 1.7635829844430332E9, 0.0, 2025-11-19 16:09:44.443
212.0, -179973.60884828673, -183749.19846644384, -184040.48640018541, -182855.28515044274, -186124.33953575368, -186078.80903229822, -181048.7724600759, -187500.02235174447, 0.0, 0.0, 0.0, 193.0, 0.0, 0.0, 0.0, 0.0, 0.0, 0.0, 0.0, 0.0, 0.0, 1.7635829844470253E9, 0.0, 2025-11-19 16:09:44.447
213.0, -179970.90428720764, -183747.0303472317, -184038.3406327177, -182853.07232774168, -186122.05965781925, -186076.79737529723, -181045.91143678565, -187500.02235174447, 0.0, 0.0, 0.0, 193.0, 0.0, 0.0, 0.0, 0.0, 0.0, 0.0, 0.0, 0.0, 0.0, 1.7635829844500148E9, 0.0, 2025-11-19 16:09:44.450
214.0, -179968.84792671778, -183745.5774838421, -184036.97717630593, -182851.68651958543, -186120.45033221846, -186075.6127328411, -181044.01153850695, -187500.02235174447, 0.0, 0.0, 0.0, 193.0, 0.0, 0.0, 0.0, 0.0, 0.0, 0.0, 0.0, 0.0, 0.0, 1.763582984455011E9, 0.0, 2025-11-19 16:09:44.455
215.0, -179968.84792671778, -183746.0692222201, -184037.40185945056, -182852.04414749672, -186120.76325664084, -186076.1715264525, -181044.0338902514, -187500.02235174447, 0.0, 0.0, 0.0, 193.0, 0.0, 0.0, 0.0, 0.0, 0.0, 0.0, 0.0, 0.0, 0.0, 1.763582984459025E9, 0.0, 2025-11-19 16:09:44.459
216.0, -179968.222077873, -183745.9127600089, -184037.13363851712, -182851.79827830772, -186120.31622175174, -186076.0150642413, -181043.09511698427, -187500.02235174447, 0.0, 0.0, 0.0, 193.0, 0.0, 0.0, 0.0, 0.0, 0.0, 0.0, 0.0, 0.0, 0.0, 1.7635829844630513E9, 0.0, 2025-11-19 16:09:44.463
217.0, -179969.8761069627, -183748.05852747662, -184039.27940598482, -182853.92169403099, -186122.21612003044, -186078.25023868683, -181044.50327688496, -187500.02235174447, 0.0, 0.0, 0.0, 193.0, 0.0, 0.0, 0.0, 0.0, 0.0, 0.0, 0.0, 0.0, 0.0, 1.7635829844670365E9, 0.0, 2025-11-19 16:09:44.467
218.0, -179966.94802843907, -183745.73394605328, -184036.97717630593, -182851.64181609653, -186119.7797798848, -186076.19387819697, -181041.68695708358, -187500.02235174447, 0.0, 0.0, 0.0, 193.0, 0.0, 0.0, 0.0, 0.0, 0.0, 0.0, 0.0, 0.0, 0.0, 1.7635829844710455E9, 0.0, 2025-11-19 16:09:44.471
219.0, -179965.69633074958, -183744.95163499733, -184036.17251350553, -182850.8595050406, -186118.9304135955, -186075.63508458558, -181040.39055590518, -187500.02235174447, 0.0, 0.0, 0.0, 193.0, 0.0, 0.0, 0.0, 0.0, 0.0, 0.0, 0.0, 0.0, 0.0, 1.7635829844740236E9, 0.0, 2025-11-19 16:09:44.474
220.0, -179964.46698480452, -183744.1246204525, -184035.36785070514, -182849.94308351792, -186117.83517811718, -186074.89747701856, -181038.91534077114, -187500.02235174447, 0.0, 0.0, 0.0, 193.0, 0.0, 0.0, 0.0, 0.0, 0.0, 0.0, 0.0, 0.0, 0.0, 1.7635829844780328E9, 0.0, 2025-11-19 16:09:44.478
221.0, -179963.1705836261, -183743.3199576521, -184034.5855396492, -182849.02666199527, -186116.73994263887, -186074.33868340717, -181037.44012563708, -187500.02235174447, 0.0, 0.0, 0.0, 193.0, 0.0, 0.0, 0.0, 0.0, 0.0, 0.0, 0.0, 0.0, 0.0, 1.7635829844820795E9, 0.0, 2025-11-19 16:09:44.482
222.0, -179961.74007198098, -183742.5152948517, -184033.78087684882, -182848.1996474504, -186115.80116937176, -186073.6681310735, -181036.0766692253, -187500.02235174447, 0.0, 0.0, 0.0, 193.0, 0.0, 0.0, 0.0, 0.0, 0.0, 0.0, 0.0, 0.0, 0.0, 1.7635829844870603E9, 0.0, 2025-11-19 16:09:44.487
223.0, -179959.84017370228, -183741.10713495102, -184032.37271694813, -182846.74678406082, -186114.30360249325, -186072.43878512847, -181034.15441920215, -187500.02235174447, 0.0, 0.0, 0.0, 193.0, 0.0, 0.0, 0.0, 0.0, 0.0, 0.0, 0.0, 0.0, 0.0, 1.7635829844910517E9, 0.0, 2025-11-19 16:09:44.491
224.0, -179957.8285167013, -183739.54251283917, -184030.76339134734, -182845.09275497112, -186112.44840770346, -186070.89651476106, -181031.80748603435, -187500.02235174447, 0.0, 0.0, 0.0, 193.0, 0.0, 0.0, 0.0, 0.0, 0.0, 0.0, 0.0, 0.0, 0.0, 1.763582984495067E9, 0.0, 2025-11-19 16:09:44.495
225.0, -179956.39800505617, -183738.58138782758, -184029.82461808022, -182844.153981704, -186111.21906175843, -186070.0695002162, -181030.17580868912, -187500.02235174447, 0.0, 0.0, 0.0, 193.0, 0.0, 0.0, 0.0, 0.0, 0.0, 0.0, 0.0, 0.0, 0.0, 1.7635829844982123E9, 0.0, 2025-11-19 16:09:44.498
226.0, -179953.13465036568, -183735.94388198186, -184027.1871122345, -182841.49412411381, -186108.49214893486, -186067.67786355948, -181027.00186097645, -187500.02235174447, 0.0, 0.0, 0.0, 193.0, 0.0, 0.0, 0.0, 0.0, 0.0, 0.0, 0.0, 0.0, 0.0, 1.7635829845021813E9, 0.0, 2025-11-19 16:09:44.502
227.0, -179950.4747927755, -183733.84281800306, -184024.95193778898, -182839.2589496683, -186106.14521576706, -186065.73326179187, -181024.27494815292, -187500.02235174447, 0.0, 0.0, 0.0, 193.0, 0.0, 0.0, 0.0, 0.0, 0.0, 0.0, 0.0, 0.0, 0.0, 1.7635829845061803E9, 0.0, 2025-11-19 16:09:44.506
228.0, -179948.3737287967, -183732.1664371689, -184023.2979086993, -182837.47081011187, -186104.20061399945, -186064.19099142446, -181021.95036672955, -187500.02235174447, 0.0, 0.0, 0.0, 193.0, 0.0, 0.0, 0.0, 0.0, 0.0, 0.0, 0.0, 0.0, 0.0, 1.763582984510105E9, 0.0, 2025-11-19 16:09:44.510
229.0, -179947.23378982948, -183731.4064778574, -184022.56030113224, -182836.68849905595, -186103.3288959657, -186063.5651425797, -181020.49750333995, -187500.02235174447, 0.0, 0.0, 0.0, 193.0, 0.0, 0.0, 0.0, 0.0, 0.0, 0.0, 0.0, 0.0, 0.0, 1.763582984514195E9, 0.0, 2025-11-19 16:09:44.514
230.0, -179944.3727665392, -183728.99248945626, -184020.25807145334, -182834.27451065477, -186100.7807970978, -186061.419375112, -181017.63648004967, -187500.02235174447, 0.0, 0.0, 0.0, 193.0, 0.0, 0.0, 0.0, 0.0, 0.0, 0.0, 0.0, 0.0, 0.0, 1.7635829845191932E9, 0.0, 2025-11-19 16:09:44.519
231.0, -179941.77996418238, -183726.89142547746, -184018.15700747457, -182832.21815016487, -186098.59032614116, -186059.63123555557, -181015.02132594842, -187500.02235174447, 0.0, 0.0, 0.0, 193.0, 0.0, 0.0, 0.0, 0.0, 0.0, 0.0, 0.0, 0.0, 0.0, 1.7635829845231557E9, 0.0, 2025-11-19 16:09:44.523
232.0, -179942.15994383814, -183727.9196057224, -184019.11813248612, -182833.26868215427, -186099.2832302193, -186060.68176754497, -181015.31189862633, -187500.02235174447, 0.0, 0.0, 0.0, 193.0, 0.0, 0.0, 0.0, 0.0, 0.0, 0.0, 0.0, 0.0, 0.0, 1.7635829845261436E9, 0.0, 2025-11-19 16:09:44.526
233.0, -179941.84701941576, -183727.9643092113, -184019.2298912084, -182833.26868215427, -186099.21617498592, -186060.88293324507, -181014.70840152603, -187500.02235174447, 0.0, 0.0, 0.0, 193.0, 0.0, 0.0, 0.0, 0.0, 0.0, 0.0, 0.0, 0.0, 0.0, 1.763582984530161E9, 0.0, 2025-11-19 16:09:44.530
234.0, -179939.50008624795, -183726.08676267706, -184017.26293769633, -182831.39113562004, -186097.13746275156, -186059.25125589984, -181012.2273578915, -187500.02235174447, 0.0, 0.0, 0.0, 193.0, 0.0, 0.0, 0.0, 0.0, 0.0, 0.0, 0.0, 0.0, 0.0, 1.763582984534143E9, 0.0, 2025-11-19 16:09:44.534
235.0, -179937.13080133568, -183724.32097486508, -184015.45244639547, -182829.6476995525, -186095.19286098395, -186057.75368902134, -181009.90277646814, -187500.02235174447, 0.0, 0.0, 0.0, 193.0, 0.0, 0.0, 0.0, 0.0, 0.0, 0.0, 0.0, 0.0, 0.0, 1.7635829845381727E9, 0.0, 2025-11-19 16:09:44.538
236.0, -179935.87910364618, -183723.6057190425, -184014.7371905729, -182828.70892628538, -186094.16468073902, -186057.12784017657, -181008.53932005636, -187500.02235174447, 0.0, 0.0, 0.0, 193.0, 0.0, 0.0, 0.0, 0.0, 0.0, 0.0, 0.0, 0.0, 0.0, 1.763582984543183E9, 0.0, 2025-11-19 16:09:44.543
237.0, -179934.38153676767, -183722.42107658638, -184013.70901032796, -182827.52428382926, -186092.80122432724, -186056.05495644273, -181006.6841252666, -187500.02235174447, 0.0, 0.0, 0.0, 193.0, 0.0, 0.0, 0.0, 0.0, 0.0, 0.0, 0.0, 0.0, 0.0, 1.7635829845471706E9, 0.0, 2025-11-19 16:09:44.547
238.0, -179931.16288556613, -183719.69416376285, -184010.95974575996, -182824.70796402788, -186089.9178492925, -186053.50685757483, -181003.28666010938, -187500.02235174447, 0.0, 0.0, 0.0, 193.0, 0.0, 0.0, 0.0, 0.0, 0.0, 0.0, 0.0, 0.0, 0.0, 1.763582984551159E9, 0.0, 2025-11-19 16:09:44.551
239.0, -179928.21245529802, -183717.4142858284, -184008.65751608106, -182822.4504378379, -186087.5262126358, -186051.47284882938, -181000.49269205244, -187500.02235174447, 0.0, 0.0, 0.0, 193.0, 0.0, 0.0, 0.0, 0.0, 0.0, 0.0, 0.0, 0.0, 0.0, 1.7635829845541785E9, 0.0, 2025-11-19 16:09:44.554
240.0, -179927.87717913117, -183717.6154515285, -184008.74692305888, -182822.67395528246, -186087.45915740242, -186051.65166278504, -181000.0233054189, -187500.02235174447, 0.0, 0.0, 0.0, 193.0, 0.0, 0.0, 0.0, 0.0, 0.0, 0.0, 0.0, 0.0, 0.0, 1.763582984558194E9, 0.0, 2025-11-19 16:09:44.558
241.0, -179928.52537972038, -183718.55422479563, -184009.66334458152, -182823.56802506067, -186088.19676496944, -186052.72454651888, -181000.31387809681, -187500.02235174447, 0.0, 0.0, 0.0, 193.0, 0.0, 0.0, 0.0, 0.0, 0.0, 0.0, 0.0, 0.0, 0.0, 1.763582984562183E9, 0.0, 2025-11-19 16:09:44.562
242.0, -179929.12887682067, -183719.62710852947, -184010.8256352932, -182824.68561228344, -186089.09083474768, -186053.95389246393, -181000.7832647304, -187500.02235174447, 0.0, 0.0, 0.0, 193.0, 0.0, 0.0, 0.0, 0.0, 0.0, 0.0, 0.0, 0.0, 0.0, 1.7635829845661867E9, 0.0, 2025-11-19 16:09:44.566
243.0, -179928.77124890938, -183719.87297771848, -184011.09385622668, -182824.81972275017, -186089.24729695884, -186054.44563084195, -181000.5150437969, -187500.02235174447, 0.0, 0.0, 0.0, 193.0, 0.0, 0.0, 0.0, 0.0, 0.0, 0.0, 0.0, 0.0, 0.0, 1.7635829845701935E9, 0.0, 2025-11-19 16:09:44.570
244.0, -179928.68184193157, -183720.23060562977, -184011.3844289046, -182825.08794368364, -186089.4708144034, -186055.02677619777, -181000.31387809681, -187500.02235174447, 0.0, 0.0, 0.0, 193.0, 0.0, 0.0, 0.0, 0.0, 0.0, 0.0, 0.0, 0.0, 0.0, 1.7635829845752134E9, 0.0, 2025-11-19 16:09:44.575
245.0, -179927.72071691998, -183719.64946027394, -184010.75858005986, -182824.41739134997, -186088.6214481141, -186054.53503781976, -180999.10688389622, -187500.02235174447, 0.0, 0.0, 0.0, 193.0, 0.0, 0.0, 0.0, 0.0, 0.0, 0.0, 0.0, 0.0, 0.0, 1.7635829845792327E9, 0.0, 2025-11-19 16:09:44.579
246.0, -179925.44083898555, -183717.79426548415, -184008.9704405034, -182822.56219656017, -186086.5650876242, -186052.85865698563, -180996.60348851723, -187500.02235174447, 0.0, 0.0, 0.0, 193.0, 0.0, 0.0, 0.0, 0.0, 0.0, 0.0, 0.0, 0.0, 0.0, 1.7635829845822165E9, 0.0, 2025-11-19 16:09:44.582
247.0, -179922.95979535102, -183715.80496022763, -184007.0705422247, -182820.68465002594, -186084.5310788788, -186051.159924407, -180994.1224448827, -187500.02235174447, 0.0, 0.0, 0.0, 193.0, 0.0, 0.0, 0.0, 0.0, 0.0, 0.0, 0.0, 0.0, 0.0, 1.7635829845862164E9, 0.0, 2025-11-19 16:09:44.586
248.0, -179921.10460056123, -183714.59796602704, -184005.7741410463, -182819.32119361416, -186083.10056723363, -186050.08704067316, -180992.28960183737, -187500.02235174447, 0.0, 0.0, 0.0, 193.0, 0.0, 0.0, 0.0, 0.0, 0.0, 0.0, 0.0, 0.0, 0.0, 1.7635829845902493E9, 0.0, 2025-11-19 16:09:44.590
249.0, -179919.96466159401, -183713.97211718227, -184005.14829220157, -182818.69534476942, -186082.29590443324, -186049.52824706177, -180991.0155524034, -187500.02235174447, 0.0, 0.0, 0.0, 193.0, 0.0, 0.0, 0.0, 0.0, 0.0, 0.0, 0.0, 0.0, 0.0, 1.7635829845942323E9, 0.0, 2025-11-19 16:09:44.594
250.0, -179917.93065284856, -183712.38514332596, -184003.56131834525, -182817.04131567973, -186080.4630613879, -186048.03068018326, -180988.7133227245, -187500.02235174447, 0.0, 0.0, 0.0, 193.0, 0.0, 0.0, 0.0, 0.0, 0.0, 0.0, 0.0, 0.0, 0.0, 1.763582984599242E9, 0.0, 2025-11-19 16:09:44.599
251.0, -179916.14251329214, -183711.08874214755, -184002.2202136779, -182815.78961799023, -186078.9654945094, -186046.98014819386, -180986.83577619027, -187500.02235174447, 0.0, 0.0, 0.0, 193.0, 0.0, 0.0, 0.0, 0.0, 0.0, 0.0, 0.0, 0.0, 0.0, 1.7635829846032553E9, 0.0, 2025-11-19 16:09:44.603
252.0, -179915.60607142522, -183711.02168691417, -184002.28726891128, -182815.67785926795, -186078.7643288093, -186047.22601738287, -180986.34403781226, -187500.02235174447, 0.0, 0.0, 0.0, 193.0, 0.0, 0.0, 0.0, 0.0, 0.0, 0.0, 0.0, 0.0, 0.0, 1.7635829846062665E9, 0.0, 2025-11-19 16:09:44.606
253.0, -179913.4156004686, -183709.41236131339, -184000.58853633268, -182813.84501622262, -186076.84207878617, -186045.63904352655, -180983.9747529, -187500.02235174447, 0.0, 0.0, 0.0, 193.0, 0.0, 0.0, 0.0, 0.0, 0.0, 0.0, 0.0, 0.0, 0.0, 1.7635829846104672E9, 0.0, 2025-11-19 16:09:44.610
254.0, -179912.6109376682, -183709.07708514656, -184000.14150144358, -182813.42033307796, -186076.1715264525, -186045.37082259307, -180982.87951742168, -187500.02235174447, 0.0, 0.0, 0.0, 193.0, 0.0, 0.0, 0.0, 0.0, 0.0, 0.0, 0.0, 0.0, 0.0, 1.7635829846142883E9, 0.0, 2025-11-19 16:09:44.614
255.0, -179910.33105973375, -183707.22189035677, -183998.4204171205, -182811.60984177707, -186074.1151659626, -186043.78384873676, -180980.5102325094, -187500.02235174447, 0.0, 0.0, 0.0, 193.0, 0.0, 0.0, 0.0, 0.0, 0.0, 0.0, 0.0, 0.0, 0.0, 1.7635829846182947E9, 0.0, 2025-11-19 16:09:44.618
0.0, -179910.30870798932, -183707.80303571263, -183999.00156247636, -182812.14628364402, -186074.62925608509, -186044.43204932596, -180980.57728774278, -187500.02235174447, 0.0, 0.0, 0.0, 193.0, 0.0, 0.0, 0.0, 0.0, 0.0, 0.0, 0.0, 0.0, 0.0, 1.7635829846223097E9, 0.0, 2025-11-19 16:09:44.622
1.0, -179909.50404518892, -183707.55716652362, -183998.68863805398, -182811.78865573273, -186074.13751770707, -186044.36499409258, -180979.63851447566, -187500.02235174447, 0.0, 0.0, 0.0, 193.0, 0.0, 0.0, 0.0, 0.0, 0.0, 0.0, 0.0, 0.0, 0.0, 1.7635829846263225E9, 0.0, 2025-11-19 16:09:44.626
2.0, -179909.54874867783, -183708.09360839054, -183999.13567294308, -182812.23569062183, -186074.40573864052, -186044.99084293735, -180979.43734877557, -187500.02235174447, 0.0, 0.0, 0.0, 193.0, 0.0, 0.0, 0.0, 0.0, 0.0, 0.0, 0.0, 0.0, 0.0, 1.7635829846314924E9, 0.0, 2025-11-19 16:09:44.631
3.0, -179907.85001609923, -183706.77485546767, -183997.90632699805, -182810.82753072114, -186072.8634682731, -186043.89560745904, -180977.53745049686, -187500.02235174447, 0.0, 0.0, 0.0, 193.0, 0.0, 0.0, 0.0, 0.0, 0.0, 0.0, 0.0, 0.0, 0.0, 1.7635829846342793E9, 0.0, 2025-11-19 16:09:44.634
4.0, -179905.8607108427, -183705.32199207807, -183996.56522233074, -182809.46407430936, -186071.45530837242, -186042.77802023626, -180975.6599039626, -187500.02235174447, 0.0, 0.0, 0.0, 193.0, 0.0, 0.0, 0.0, 0.0, 0.0, 0.0, 0.0, 0.0, 0.0, 1.7635829846372986E9, 0.0, 2025-11-19 16:09:44.637
5.0, -179903.5137776749, -183703.39974205493, -183994.5759170742, -182807.58652777513, -186069.4660031159, -186040.92282544647, -180973.17886032807, -187500.02235174447, 0.0, 0.0, 0.0, 193.0, 0.0, 0.0, 0.0, 0.0, 0.0, 0.0, 0.0, 0.0, 0.0, 1.7635829846423044E9, 0.0, 2025-11-19 16:09:44.642
6.0, -179902.48559742994, -183702.81859669907, -183993.90536474055, -182806.8489202081, -186068.48252635988, -186040.38638357955, -180971.8601074052, -187500.02235174447, 0.0, 0.0, 0.0, 193.0, 0.0, 0.0, 0.0, 0.0, 0.0, 0.0, 0.0, 0.0, 0.0, 1.7635829846464007E9, 0.0, 2025-11-19 16:09:44.646
7.0, -179900.63040264018, -183701.52219552067, -183992.6760187955, -182805.50781554077, -186066.89555250356, -186039.29114810124, -180969.82609865977, -187500.02235174447, 0.0, 0.0, 0.0, 193.0, 0.0, 0.0, 0.0, 0.0, 0.0, 0.0, 0.0, 0.0, 0.0, 1.763582984650345E9, 0.0, 2025-11-19 16:09:44.650
8.0, -179899.73633286194, -183701.11986412047, -183992.29603913976, -182805.23959460732, -186066.53792459227, -186039.17938937896, -180968.99908411494, -187500.02235174447, 0.0, 0.0, 0.0, 193.0, 0.0, 0.0, 0.0, 0.0, 0.0, 0.0, 0.0, 0.0, 0.0, 1.763582984654352E9, 0.0, 2025-11-19 16:09:44.654
9.0, -179900.63040264018, -183702.6621344879, -183993.7265507849, -182806.69245799692, -186067.8119740262, -186040.85577021312, -180969.82609865977, -187500.02235174447, 0.0, 0.0, 0.0, 193.0, 0.0, 0.0, 0.0, 0.0, 0.0, 0.0, 0.0, 0.0, 0.0, 1.7635829846583483E9, 0.0, 2025-11-19 16:09:44.658
10.0, -179899.2669462284, -183701.63395424295, -183992.56426007324, -182805.46311205186, -186066.4708693589, -186039.84994171263, -180968.0603108478, -187500.02235174447, 0.0, 0.0, 0.0, 193.0, 0.0, 0.0, 0.0, 0.0, 0.0, 0.0, 0.0, 0.0, 0.0, 1.763582984662329E9, 0.0, 2025-11-19 16:09:44.662
11.0, -179896.87530957168, -183699.62229724196, -183990.64201005007, -182803.4514550509, -186064.3698053801, -186037.92769168946, -180965.5122119799, -187500.02235174447, 0.0, 0.0, 0.0, 193.0, 0.0, 0.0, 0.0, 0.0, 0.0, 0.0, 0.0, 0.0, 0.0, 1.7635829846653788E9, 0.0, 2025-11-19 16:09:44.665
12.0, -179895.64596362662, -183698.97409665276, -183990.08321643868, -182802.98206841733, -186063.69925304645, -186037.63711901155, -180964.34992126824, -187500.02235174447, 0.0, 0.0, 0.0, 193.0, 0.0, 0.0, 0.0, 0.0, 0.0, 0.0, 0.0, 0.0, 0.0, 1.7635829846703613E9, 0.0, 2025-11-19 16:09:44.670
13.0, -179893.23197522547, -183697.11890186297, -183988.31742862673, -182801.08217013863, -186061.64289255656, -186035.93838643294, -180961.98063635596, -187500.02235174447, 0.0, 0.0, 0.0, 193.0, 0.0, 0.0, 0.0, 0.0, 0.0, 0.0, 0.0, 0.0, 0.0, 1.7635829846743567E9, 0.0, 2025-11-19 16:09:44.674
14.0, -179890.68387635757, -183694.95078265082, -183986.05990243674, -182798.77994045973, -186059.25125589984, -186033.92672943196, -180959.07490957677, -187500.02235174447, 0.0, 0.0, 0.0, 193.0, 0.0, 0.0, 0.0, 0.0, 0.0, 0.0, 0.0, 0.0, 0.0, 1.7635829846783764E9, 0.0, 2025-11-19 16:09:44.678
15.0, -179888.3145914453, -183693.1179396055, -183984.11530066913, -182796.83533869212, -186057.08313668767, -186032.20564510892, -180956.43740373105, -187500.02235174447, 0.0, 0.0, 0.0, 193.0, 0.0, 0.0, 0.0, 0.0, 0.0, 0.0, 0.0, 0.0, 0.0, 1.763582984682414E9, 0.0, 2025-11-19 16:09:44.682
16.0, -179886.03471351086, -183691.35215179352, -183982.32716111268, -182795.13660611352, -186055.20559015343, -186030.64102299704, -180954.13517405215, -187500.02235174447, 0.0, 0.0, 0.0, 193.0, 0.0, 0.0, 0.0, 0.0, 0.0, 0.0, 0.0, 0.0, 0.0, 1.7635829846853893E9, 0.0, 2025-11-19 16:09:44.685
17.0, -179882.458434398, -183688.4017215254, -183979.26497212233, -182792.2532310788, -186052.05399418523, -186027.9141101735, -180950.7153571505, -187500.02235174447, 0.0, 0.0, 0.0, 193.0, 0.0, 0.0, 0.0, 0.0, 0.0, 0.0, 0.0, 0.0, 0.0, 1.7635829846893957E9, 0.0, 2025-11-19 16:09:44.689
18.0, -179880.6479430971, -183687.17237558035, -183978.08032966618, -182790.9568299004, -186050.60113079564, -186026.84122643963, -180948.83781061624, -187500.02235174447, 0.0, 0.0, 0.0, 193.0, 0.0, 0.0, 0.0, 0.0, 0.0, 0.0, 0.0, 0.0, 0.0, 1.763582984693371E9, 0.0, 2025-11-19 16:09:44.693
19.0, -179879.1056727297, -183685.98773312423, -183976.8733354656, -182789.57102174414, -186049.12591566157, -186025.67893572795, -180946.87085710416, -187500.02235174447, 0.0, 0.0, 0.0, 193.0, 0.0, 0.0, 0.0, 0.0, 0.0, 0.0, 0.0, 0.0, 0.0, 1.763582984698392E9, 0.0, 2025-11-19 16:09:44.698
20.0, -179880.5585361193, -183687.84292791403, -183978.86264072213, -182791.38151304502, -186050.86935172908, -186027.7129444734, -180948.18961002704, -187500.02235174447, 0.0, 0.0, 0.0, 193.0, 0.0, 0.0, 0.0, 0.0, 0.0, 0.0, 0.0, 0.0, 0.0, 1.7635829847024174E9, 0.0, 2025-11-19 16:09:44.702
21.0, -179878.52452737387, -183686.39006452443, -183977.40977733253, -182790.01805663324, -186049.34943310614, -186026.5059502728, -180946.13324953715, -187500.02235174447, 0.0, 0.0, 0.0, 193.0, 0.0, 0.0, 0.0, 0.0, 0.0, 0.0, 0.0, 0.0, 0.0, 1.7635829847064204E9, 0.0, 2025-11-19 16:09:44.706
22.0, -179875.9987802504, -183684.22194531228, -183975.21930637592, -182787.8052339322, -186047.02485168277, -186024.53899676073, -180943.45104020252, -187500.02235174447, 0.0, 0.0, 0.0, 193.0, 0.0, 0.0, 0.0, 0.0, 0.0, 0.0, 0.0, 0.0, 0.0, 1.76358298471042E9, 0.0, 2025-11-19 16:09:44.710
23.0, -179876.08818722825, -183684.7583871792, -183975.7780999873, -182788.20756533238, -186047.22601738287, -186025.09779037212, -180943.3169297358, -187500.02235174447, 0.0, 0.0, 0.0, 193.0, 0.0, 0.0, 0.0, 0.0, 0.0, 0.0, 0.0, 0.0, 0.0, 1.7635829847134836E9, 0.0, 2025-11-19 16:09:44.713
24.0, -179875.66350408358, -183684.82544241255, -183975.91221045403, -182788.36402754355, -186047.06955517168, -186025.34365956113, -180942.7581361244, -187500.02235174447, 0.0, 0.0, 0.0, 193.0, 0.0, 0.0, 0.0, 0.0, 0.0, 0.0, 0.0, 0.0, 0.0, 1.7635829847174304E9, 0.0, 2025-11-19 16:09:44.717
25.0, -179872.8024807933, -183682.52321273368, -183973.74409124185, -182786.2406118203, -186044.81202898172, -186023.44376128243, -180940.09827853422, -187500.02235174447, 0.0, 0.0, 0.0, 193.0, 0.0, 0.0, 0.0, 0.0, 0.0, 0.0, 0.0, 0.0, 0.0, 1.7635829847214155E9, 0.0, 2025-11-19 16:09:44.721
26.0, -179871.84135578174, -183682.1655848224, -183973.20764937493, -182785.72652169783, -186044.23088362586, -186023.2202438379, -180939.0700982893, -187500.02235174447, 0.0, 0.0, 0.0, 193.0, 0.0, 0.0, 0.0, 0.0, 0.0, 0.0, 0.0, 0.0, 0.0, 1.7635829847264512E9, 0.0, 2025-11-19 16:09:44.726
27.0, -179869.31560865827, -183680.1092243325, -183971.06188190723, -182783.42429201893, -186041.79454348024, -186021.1191798591, -180936.209074999, -187500.02235174447, 0.0, 0.0, 0.0, 193.0, 0.0, 0.0, 0.0, 0.0, 0.0, 0.0, 0.0, 0.0, 0.0, 1.7635829847304497E9, 0.0, 2025-11-19 16:09:44.730
28.0, -179866.47693711246, -183677.71758767578, -183968.69259699495, -182781.01030361778, -186039.40290682352, -186018.97341239138, -180933.2586447309, -187500.02235174447, 0.0, 0.0, 0.0, 193.0, 0.0, 0.0, 0.0, 0.0, 0.0, 0.0, 0.0, 0.0, 0.0, 1.763582984734494E9, 0.0, 2025-11-19 16:09:44.734
29.0, -179865.4040533786, -183677.0470353421, -183968.13380338356, -182780.4515100064, -186038.73235448985, -186018.6157844801, -180932.14105750812, -187500.02235174447, 0.0, 0.0, 0.0, 193.0, 0.0, 0.0, 0.0, 0.0, 0.0, 0.0, 0.0, 0.0, 0.0, 1.7635829847384677E9, 0.0, 2025-11-19 16:09:44.738
30.0, -179863.39239637763, -183675.6612271859, -183966.680939994, -182778.97629487232, -186037.03362191125, -186017.29703155722, -180930.0623452738, -187500.02235174447, 0.0, 0.0, 0.0, 193.0, 0.0, 0.0, 0.0, 0.0, 0.0, 0.0, 0.0, 0.0, 0.0, 1.7635829847415009E9, 0.0, 2025-11-19 16:09:44.741
31.0, -179860.62078006516, -183673.33664576252, -183964.3340068262, -182776.60700996008, -186034.28435734325, -186014.99480187832, -180926.9554527945, -187500.02235174447, 0.0, 0.0, 0.0, 193.0, 0.0, 0.0, 0.0, 0.0, 0.0, 0.0, 0.0, 0.0, 0.0, 1.763582984745484E9, 0.0, 2025-11-19 16:09:44.745
32.0, -179859.34673063122, -183672.5990381955, -183963.50699228133, -182775.80234715968, -186033.43499105395, -186014.4136565225, -180925.5025894049, -187500.02235174447, 0.0, 0.0, 0.0, 193.0, 0.0, 0.0, 0.0, 0.0, 0.0, 0.0, 0.0, 0.0, 0.0, 1.7635829847495048E9, 0.0, 2025-11-19 16:09:44.749
33.0, -179858.94439923103, -183672.7107969178, -183963.66345449252, -182776.00351285978, -186033.56910152067, -186014.99480187832, -180925.27907196037, -187500.02235174447, 0.0, 0.0, 0.0, 193.0, 0.0, 0.0, 0.0, 0.0, 0.0, 0.0, 0.0, 0.0, 0.0, 1.7635829847534916E9, 0.0, 2025-11-19 16:09:44.753
34.0, -179858.09503294172, -183672.42022423988, -183963.39523355904, -182775.62353320402, -186033.05501139822, -186014.88304315603, -180924.4073539266, -187500.02235174447, 0.0, 0.0, 0.0, 193.0, 0.0, 0.0, 0.0, 0.0, 0.0, 0.0, 0.0, 0.0, 0.0, 1.7635829847584913E9, 0.0, 2025-11-19 16:09:44.758
35.0, -179857.37977711915, -183672.04024458412, -183963.01525390332, -182775.17649831492, -186032.38445906455, -186014.52541524477, -180923.26741495938, -187500.02235174447, 0.0, 0.0, 0.0, 193.0, 0.0, 0.0, 0.0, 0.0, 0.0, 0.0, 0.0, 0.0, 0.0, 1.7635829847625113E9, 0.0, 2025-11-19 16:09:44.762
36.0, -179853.46822183946, -183668.6427794269, -183959.5283817683, -182771.60021920208, -186028.8081799517, -186011.1055983431, -180919.13234223516, -187500.02235174447, 0.0, 0.0, 0.0, 193.0, 0.0, 0.0, 0.0, 0.0, 0.0, 0.0, 0.0, 0.0, 0.0, 1.76358298476551E9, 0.0, 2025-11-19 16:09:44.765
37.0, -179849.89194272662, -183665.602942181, -183956.51089626682, -182768.6944924229, -186025.74599096132, -186008.33398203063, -180915.6007666112, -187500.02235174447, 0.0, 0.0, 0.0, 193.0, 0.0, 0.0, 0.0, 0.0, 0.0, 0.0, 0.0, 0.0, 0.0, 1.7635829847695131E9, 0.0, 2025-11-19 16:09:44.769
38.0, -179850.42838459354, -183666.6534741704, -183957.69553872294, -182769.72267266785, -186026.662412484, -186009.6974384424, -180916.18191196705, -187500.02235174447, 0.0, 0.0, 0.0, 193.0, 0.0, 0.0, 0.0, 0.0, 0.0, 0.0, 0.0, 0.0, 0.0, 1.7635829847735033E9, 0.0, 2025-11-19 16:09:44.773
39.0, -179850.6519020381, -183667.2569712707, -183958.2319805899, -182770.21441104586, -186026.99768865082, -186010.3456390316, -180916.11485673368, -187500.02235174447, 0.0, 0.0, 0.0, 193.0, 0.0, 0.0, 0.0, 0.0, 0.0, 0.0, 0.0, 0.0, 0.0, 1.7635829847775242E9, 0.0, 2025-11-19 16:09:44.777
40.0, -179848.48378282593, -183665.62529392546, -183956.55559975572, -182768.5827337006, -186025.1648456055, -186008.78101691973, -180913.81262705478, -187500.02235174447, 0.0, 0.0, 0.0, 193.0, 0.0, 0.0, 0.0, 0.0, 0.0, 0.0, 0.0, 0.0, 0.0, 1.7635829847815273E9, 0.0, 2025-11-19 16:09:44.781
41.0, -179846.96386420296, -183664.6418171694, -183955.5274195108, -182767.62160868905, -186024.09196187163, -186008.1104645861, -180912.35976366518, -187500.02235174447, 0.0, 0.0, 0.0, 193.0, 0.0, 0.0, 0.0, 0.0, 0.0, 0.0, 0.0, 0.0, 0.0, 1.7635829847865565E9, 0.0, 2025-11-19 16:09:44.786
42.0, -179847.81323049226, -183666.11703230347, -183956.95793115592, -182769.0297685897, -186025.27660432775, -186009.71979018688, -180913.23148169895, -187500.02235174447, 0.0, 0.0, 0.0, 193.0, 0.0, 0.0, 0.0, 0.0, 0.0, 0.0, 0.0, 0.0, 0.0, 1.763582984790576E9, 0.0, 2025-11-19 16:09:44.790
43.0, -179848.68494852603, -183667.3910817374, -183958.29903582323, -182770.25911453477, -186026.34948806162, -186011.12795008757, -180913.81262705478, -187500.02235174447, 0.0, 0.0, 0.0, 193.0, 0.0, 0.0, 0.0, 0.0, 0.0, 0.0, 0.0, 0.0, 0.0, 1.7635829847935464E9, 0.0, 2025-11-19 16:09:44.793
44.0, -179848.7520037594, -183667.83811662652, -183958.74607071234, -182770.6390941905, -186026.6177089951, -186011.68674369893, -180913.4997026324, -187500.02235174447, 0.0, 0.0, 0.0, 193.0, 0.0, 0.0, 0.0, 0.0, 0.0, 0.0, 0.0, 0.0, 0.0, 1.7635829847975628E9, 0.0, 2025-11-19 16:09:44.797
45.0, -179846.98621594743, -183666.63112242596, -183957.56142825622, -182769.45445173437, -186025.2095490944, -186010.7479704318, -180911.8009700538, -187500.02235174447, 0.0, 0.0, 0.0, 193.0, 0.0, 0.0, 0.0, 0.0, 0.0, 0.0, 0.0, 0.0, 0.0, 1.763582984801542E9, 0.0, 2025-11-19 16:09:44.801
46.0, -179845.01926243535, -183665.31236950308, -183956.1756201, -182768.1356988115, -186023.7119822159, -186009.58567972013, -180909.9010717751, -187500.02235174447, 0.0, 0.0, 0.0, 193.0, 0.0, 0.0, 0.0, 0.0, 0.0, 0.0, 0.0, 0.0, 0.0, 1.7635829848056233E9, 0.0, 2025-11-19 16:09:44.805
47.0, -179842.4041083341, -183663.099546802, -183953.9627973989, -182765.92287611045, -186021.29799381472, -186007.61872620808, -180907.17415895156, -187500.02235174447, 0.0, 0.0, 0.0, 193.0, 0.0, 0.0, 0.0, 0.0, 0.0, 0.0, 0.0, 0.0, 0.0, 1.763582984809594E9, 0.0, 2025-11-19 16:09:44.809
48.0, -179838.13492514312, -183659.27739850015, -183950.0735938637, -182761.96661734185, -186017.1629210905, -186003.77422616177, -180902.5473478493, -187500.02235174447, 0.0, 0.0, 0.0, 193.0, 0.0, 0.0, 0.0, 0.0, 0.0, 0.0, 0.0, 0.0, 0.0, 1.7635829848146E9, 0.0, 2025-11-19 16:09:44.814
49.0, -179836.27973035333, -183657.91394208837, -183948.68778570747, -182760.5361056967, -186015.64300246752, -186002.47782498336, -180900.55804259278, -187500.02235174447, 0.0, 0.0, 0.0, 193.0, 0.0, 0.0, 0.0, 0.0, 0.0, 0.0, 0.0, 0.0, 0.0, 1.7635829848186364E9, 0.0, 2025-11-19 16:09:44.818
50.0, -179834.22336986344, -183656.50578218768, -183947.23492231788, -182759.0832423071, -186014.0560286112, -186001.2037755494, -180898.61344082517, -187500.02235174447, 0.0, 0.0, 0.0, 193.0, 0.0, 0.0, 0.0, 0.0, 0.0, 0.0, 0.0, 0.0, 0.0, 1.7635829848215983E9, 0.0, 2025-11-19 16:09:44.821
51.0, -179833.12813438513, -183655.83522985404, -183946.6090734731, -182758.45739346236, -186013.2513658108, -186000.8014441492, -180897.38409488014, -187500.02235174447, 0.0, 0.0, 0.0, 193.0, 0.0, 0.0, 0.0, 0.0, 0.0, 0.0, 0.0, 0.0, 0.0, 1.7635829848255968E9, 0.0, 2025-11-19 16:09:44.825
52.0, -179831.5411605288, -183654.60588390898, -183945.37972752808, -182757.11628879505, -186011.68674369893, -185999.5497464597, -180895.37243787915, -187500.02235174447, 0.0, 0.0, 0.0, 193.0, 0.0, 0.0, 0.0, 0.0, 0.0, 0.0, 0.0, 0.0, 0.0, 1.7635829848296747E9, 0.0, 2025-11-19 16:09:44.829
53.0, -179831.31764308424, -183654.87410484246, -183945.7150036949, -182757.3398062396, -186011.88790939903, -186000.1979470489, -180894.99245822342, -187500.02235174447, 0.0, 0.0, 0.0, 193.0, 0.0, 0.0, 0.0, 0.0, 0.0, 0.0, 0.0, 0.0, 0.0, 1.7635829848336685E9, 0.0, 2025-11-19 16:09:44.833
54.0, -179832.9046169406, -183657.0422240546, -183947.90547465152, -182759.5302771962, -186013.94426988892, -186002.7460459168, -180896.78059777984, -187500.02235174447, 0.0, 0.0, 0.0, 193.0, 0.0, 0.0, 0.0, 0.0, 0.0, 0.0, 0.0, 0.0, 0.0, 1.763582984837675E9, 0.0, 2025-11-19 16:09:44.837
55.0, -179830.6917942395, -183655.36584322047, -183946.25144556182, -182757.71978589534, -186012.08907509912, -186001.13672031602, -180894.45601635647, -187500.02235174447, 0.0, 0.0, 0.0, 193.0, 0.0, 0.0, 0.0, 0.0, 0.0, 0.0, 0.0, 0.0, 0.0, 1.7635829848416424E9, 0.0, 2025-11-19 16:09:44.841
56.0, -179829.97653841693, -183655.0529187981, -183945.89381765056, -182757.3845097285, -186011.53028148774, -186000.9579063604, -180893.42783611154, -187500.02235174447, 0.0, 0.0, 0.0, 193.0, 0.0, 0.0, 0.0, 0.0, 0.0, 0.0, 0.0, 0.0, 0.0, 1.7635829848466573E9, 0.0, 2025-11-19 16:09:44.846
57.0, -179827.62960524912, -183653.17537226385, -183944.0162711163, -182755.50696319426, -186009.3621622756, -185999.16976680397, -180890.85738549917, -187500.02235174447, 0.0, 0.0, 0.0, 193.0, 0.0, 0.0, 0.0, 0.0, 0.0, 0.0, 0.0, 0.0, 0.0, 1.763582984849641E9, 0.0, 2025-11-19 16:09:44.849
58.0, -179824.6344714921, -183650.71668037376, -183941.53522748177, -182753.00356781526, -186006.7470081743, -185996.86753712507, -180887.86225174216, -187500.02235174447, 0.0, 0.0, 0.0, 193.0, 0.0, 0.0, 0.0, 0.0, 0.0, 0.0, 0.0, 0.0, 0.0, 1.763582984853664E9, 0.0, 2025-11-19 16:09:44.853
59.0, -179823.7404017139, -183650.51551467367, -183941.3117100372, -182752.71299513735, -186006.27762154076, -185996.8451853806, -180887.12464417514, -187500.02235174447, 0.0, 0.0, 0.0, 193.0, 0.0, 0.0, 0.0, 0.0, 0.0, 0.0, 0.0, 0.0, 0.0, 1.7635829848576648E9, 0.0, 2025-11-19 16:09:44.857
60.0, -179823.67334648053, -183650.73903211823, -183941.64698620402, -182753.04827130417, -186006.4564354964, -185997.33692375862, -180886.72231277495, -187500.02235174447, 0.0, 0.0, 0.0, 193.0, 0.0, 0.0, 0.0, 0.0, 0.0, 0.0, 0.0, 0.0, 0.0, 1.7635829848616908E9, 0.0, 2025-11-19 16:09:44.861
61.0, -179824.36625055867, -183651.81191585207, -183942.7645734268, -182754.12115503804, -186007.32815353016, -185998.61097319258, -180887.1469959196, -187500.02235174447, 0.0, 0.0, 0.0, 193.0, 0.0, 0.0, 0.0, 0.0, 0.0, 0.0, 0.0, 0.0, 0.0, 1.7635829848656807E9, 0.0, 2025-11-19 16:09:44.865
62.0, -179823.22631159142, -183651.18606700734, -183942.1610763265, -182753.47295444884, -186006.67995294096, -185998.2533452813, -180886.05176044127, -187500.02235174447, 0.0, 0.0, 0.0, 193.0, 0.0, 0.0, 0.0, 0.0, 0.0, 0.0, 0.0, 0.0, 0.0, 1.7635829848696704E9, 0.0, 2025-11-19 16:09:44.869
63.0, -179821.05819237928, -183649.55438966208, -183940.52939898128, -182751.79657361467, -186004.8918133845, -185996.73342665835, -180883.86128948466, -187500.02235174447, 0.0, 0.0, 0.0, 193.0, 0.0, 0.0, 0.0, 0.0, 0.0, 0.0, 0.0, 0.0, 0.0, 1.763582984873695E9, 0.0, 2025-11-19 16:09:44.873
64.0, -179820.5441022568, -183649.57674140655, -183940.4623437479, -182751.61775965904, -186004.6012407066, -185996.77813014726, -180883.1460336621, -187500.02235174447, 0.0, 0.0, 0.0, 193.0, 0.0, 0.0, 0.0, 0.0, 0.0, 0.0, 0.0, 0.0, 0.0, 1.7635829848767269E9, 0.0, 2025-11-19 16:09:44.876
65.0, -179818.66655572256, -183648.05682278358, -183939.0094803583, -182750.05313754716, -186002.8578046391, -185995.41467373547, -180880.95556270547, -187500.02235174447, 0.0, 0.0, 0.0, 193.0, 0.0, 0.0, 0.0, 0.0, 0.0, 0.0, 0.0, 0.0, 0.0, 1.7635829848817008E9, 0.0, 2025-11-19 16:09:44.881
66.0, -179815.8949394101, -183645.79929659358, -183936.7519541683, -182747.81796310164, -186000.48851972682, -185993.47007196787, -180878.18394639302, -187500.02235174447, 0.0, 0.0, 0.0, 193.0, 0.0, 0.0, 0.0, 0.0, 0.0, 0.0, 0.0, 0.0, 0.0, 1.7635829848857043E9, 0.0, 2025-11-19 16:09:44.885
67.0, -179815.7831806878, -183646.17927624934, -183937.1542855685, -182748.24264624628, -186000.8014441492, -185994.1406243015, -180878.07218767074, -187500.02235174447, 0.0, 0.0, 0.0, 193.0, 0.0, 0.0, 0.0, 0.0, 0.0, 0.0, 0.0, 0.0, 0.0, 1.763582984889708E9, 0.0, 2025-11-19 16:09:44.889
68.0, -179815.5820149877, -183646.42514543835, -183937.4672099909, -182748.44381194637, -186000.73438891585, -185994.47590046836, -180877.66985627054, -187500.02235174447, 0.0, 0.0, 0.0, 193.0, 0.0, 0.0, 0.0, 0.0, 0.0, 0.0, 0.0, 0.0, 0.0, 1.7635829848937263E9, 0.0, 2025-11-19 16:09:44.893
69.0, -179813.1456748421, -183644.43584018183, -183935.410849501, -182746.34274796757, -185998.40980749248, -185992.4418917229, -180874.92059170254, -187500.02235174447, 0.0, 0.0, 0.0, 193.0, 0.0, 0.0, 0.0, 0.0, 0.0, 0.0, 0.0, 0.0, 0.0, 1.7635829848987584E9, 0.0, 2025-11-19 16:09:44.898
70.0, -179812.0951428527, -183643.9441018038, -183934.82970414517, -182745.76160261175, -185997.8063103922, -185992.151319045, -180873.75830099086, -187500.02235174447, 0.0, 0.0, 0.0, 193.0, 0.0, 0.0, 0.0, 0.0, 0.0, 0.0, 0.0, 0.0, 0.0, 1.7635829849017236E9, 0.0, 2025-11-19 16:09:44.901
71.0, -179808.3847532731, -183640.79250583562, -183931.70045992144, -182742.74411711027, -185994.4982522128, -185989.2455922658, -180870.1373183891, -187500.02235174447, 0.0, 0.0, 0.0, 193.0, 0.0, 0.0, 0.0, 0.0, 0.0, 0.0, 0.0, 0.0, 0.0, 1.7635829849047296E9, 0.0, 2025-11-19 16:09:44.904
72.0, -179805.30021253828, -183638.22205522325, -183929.08530582016, -182740.17366649793, -185991.63722892254, -185986.83160386464, -180866.8963154431, -187500.02235174447, 0.0, 0.0, 0.0, 193.0, 0.0, 0.0, 0.0, 0.0, 0.0, 0.0, 0.0, 0.0, 0.0, 1.763582984909742E9, 0.0, 2025-11-19 16:09:44.909
73.0, -179802.8862241371, -183636.21039822226, -183926.9618900969, -182738.02789903022, -185989.402054477, -185984.8422986081, -180864.07999564172, -187500.02235174447, 0.0, 0.0, 0.0, 193.0, 0.0, 0.0, 0.0, 0.0, 0.0, 0.0, 0.0, 0.0, 0.0, 1.7635829849138029E9, 0.0, 2025-11-19 16:09:44.913
74.0, -179801.12043632515, -183634.86929355495, -183925.68784066295, -182736.66444261844, -185987.9938945763, -185983.85882185207, -180862.3365595742, -187500.02235174447, 0.0, 0.0, 0.0, 193.0, 0.0, 0.0, 0.0, 0.0, 0.0, 0.0, 0.0, 0.0, 0.0, 1.7635829849177508E9, 0.0, 2025-11-19 16:09:44.917
75.0, -179800.47223573594, -183634.71283134376, -183925.7101924074, -182736.61973912953, -185987.83743236514, -185983.9929323188, -180861.7330624739, -187500.02235174447, 0.0, 0.0, 0.0, 193.0, 0.0, 0.0, 0.0, 0.0, 0.0, 0.0, 0.0, 0.0, 0.0, 1.7635829849217772E9, 0.0, 2025-11-19 16:09:44.921
76.0, -179800.04755259128, -183634.80223832157, -183925.7548958963, -182736.66444261844, -185987.7480253873, -185984.10469104108, -180861.12956537362, -187500.02235174447, 0.0, 0.0, 0.0, 193.0, 0.0, 0.0, 0.0, 0.0, 0.0, 0.0, 0.0, 0.0, 0.0, 1.7635829849271088E9, 0.0, 2025-11-19 16:09:44.927
77.0, -179797.54415721228, -183632.85763655396, -183923.63148017306, -182734.5857303841, -185985.4010922195, -185982.13773752903, -180858.40265255008, -187500.02235174447, 0.0, 0.0, 0.0, 193.0, 0.0, 0.0, 0.0, 0.0, 0.0, 0.0, 0.0, 0.0, 0.0, 1.763582984929778E9, 0.0, 2025-11-19 16:09:44.929
78.0, -179795.17487230003, -183631.02479350864, -183921.77628538327, -182732.59642512756, -185983.36708347406, -185980.43900495043, -180855.87690542662, -187500.02235174447, 0.0, 0.0, 0.0, 193.0, 0.0, 0.0, 0.0, 0.0, 0.0, 0.0, 0.0, 0.0, 0.0, 1.7635829849327736E9, 0.0, 2025-11-19 16:09:44.932
79.0, -179793.61025018815, -183630.01896500814, -183920.92691909397, -182731.56824488263, -185982.20479276238, -185979.81315610567, -180854.3793385481, -187500.02235174447, 0.0, 0.0, 0.0, 193.0, 0.0, 0.0, 0.0, 0.0, 0.0, 0.0, 0.0, 0.0, 0.0, 1.7635829849377677E9, 0.0, 2025-11-19 16:09:44.937
80.0, -179792.33620075422, -183629.32606093003, -183920.32342199367, -182730.94239603786, -185981.31072298417, -185979.25436249428, -180853.194696092, -187500.02235174447, 0.0, 0.0, 0.0, 193.0, 0.0, 0.0, 0.0, 0.0, 0.0, 0.0, 0.0, 0.0, 0.0, 1.7635829849418087E9, 0.0, 2025-11-19 16:09:44.941
81.0, -179791.50918620935, -183628.83432255202, -183919.74227663784, -182730.36125068204, -185980.57311541715, -185978.76262411627, -180851.92064665802, -187500.02235174447, 0.0, 0.0, 0.0, 193.0, 0.0, 0.0, 0.0, 0.0, 0.0, 0.0, 0.0, 0.0, 0.0, 1.7635829849459777E9, 0.0, 2025-11-19 16:09:44.945
82.0, -179789.34106699718, -183627.0461829956, -183917.88708184805, -182728.4837041478, -185978.62851364954, -185977.15329851548, -180849.5290100013, -187500.02235174447, 0.0, 0.0, 0.0, 193.0, 0.0, 0.0, 0.0, 0.0, 0.0, 0.0, 0.0, 0.0, 0.0, 1.7635829849498055E9, 0.0, 2025-11-19 16:09:44.949
83.0, -179788.13407279662, -183626.33092717302, -183917.23888125885, -182727.90255879195, -185977.82385084915, -185976.77331885975, -180848.433774523, -187500.02235174447, 0.0, 0.0, 0.0, 193.0, 0.0, 0.0, 0.0, 0.0, 0.0, 0.0, 0.0, 0.0, 0.0, 1.7635829849539683E9, 0.0, 2025-11-19 16:09:44.953
84.0, -179787.19529952947, -183625.9509475173, -183916.83654985865, -182727.4331721584, -185977.26505723776, -185976.54980141518, -180847.36089078916, -187500.02235174447, 0.0, 0.0, 0.0, 193.0, 0.0, 0.0, 0.0, 0.0, 0.0, 0.0, 0.0, 0.0, 0.0, 1.7635829849568284E9, 0.0, 2025-11-19 16:09:44.956
85.0, -179787.35176174066, -183626.55444461756, -183917.28358474775, -182727.8802070475, -185977.51092642677, -185977.17565025995, -180847.15972508906, -187500.02235174447, 0.0, 0.0, 0.0, 193.0, 0.0, 0.0, 0.0, 0.0, 0.0, 0.0, 0.0, 0.0, 0.0, 1.763582984960826E9, 0.0, 2025-11-19 16:09:44.960
86.0, -179787.70938965195, -183627.40381090686, -183918.15530278152, -182728.640166359, -185978.22618224935, -185978.06972003815, -180847.24913206688, -187500.02235174447, 0.0, 0.0, 0.0, 193.0, 0.0, 0.0, 0.0, 0.0, 0.0, 0.0, 0.0, 0.0, 0.0, 1.7635829849658267E9, 0.0, 2025-11-19 16:09:44.965
87.0, -179787.73174139642, -183627.96260451825, -183918.80350337073, -182729.2883669482, -185978.71792062736, -185978.96378981636, -180847.3385390447, -187500.02235174447, 0.0, 0.0, 0.0, 193.0, 0.0, 0.0, 0.0, 0.0, 0.0, 0.0, 0.0, 0.0, 0.0, 1.7635829849698653E9, 0.0, 2025-11-19 16:09:44.969
88.0, -179786.12241579563, -183627.0908864845, -183917.79767487023, -182728.3272419366, -185977.48857468233, -185978.27088573825, -180845.930379144, -187500.02235174447, 0.0, 0.0, 0.0, 193.0, 0.0, 0.0, 0.0, 0.0, 0.0, 0.0, 0.0, 0.0, 0.0, 1.7635829849739108E9, 0.0, 2025-11-19 16:09:44.973
89.0, -179783.59666867217, -183624.9451190168, -183915.76366612478, -182726.15912272444, -185975.16399325896, -185976.23687699283, -180843.181114576, -187500.02235174447, 0.0, 0.0, 0.0, 193.0, 0.0, 0.0, 0.0, 0.0, 0.0, 0.0, 0.0, 0.0, 0.0, 1.7635829849778435E9, 0.0, 2025-11-19 16:09:44.977
90.0, -179780.26625874834, -183621.97233700423, -183912.81323585668, -182723.09693373405, -185972.01239729076, -185973.30879846917, -180839.60483546316, -187500.02235174447, 0.0, 0.0, 0.0, 193.0, 0.0, 0.0, 0.0, 0.0, 0.0, 0.0, 0.0, 0.0, 0.0, 1.763582984981917E9, 0.0, 2025-11-19 16:09:44.981
91.0, -179778.81339535874, -183621.05591548156, -183911.87446258956, -182722.1358087225, -185970.91716181245, -185972.66059787996, -180838.10726858466, -187500.02235174447, 0.0, 0.0, 0.0, 193.0, 0.0, 0.0, 0.0, 0.0, 0.0, 0.0, 0.0, 0.0, 0.0, 1.7635829849848778E9, 0.0, 2025-11-19 16:09:44.984
92.0, -179778.187546514, -183620.87710152593, -183911.80740735622, -182722.06875348912, -185970.82775483464, -185972.86176358006, -180837.50377148436, -187500.02235174447, 0.0, 0.0, 0.0, 193.0, 0.0, 0.0, 0.0, 0.0, 0.0, 0.0, 0.0, 0.0, 0.0, 1.763582984988891E9, 0.0, 2025-11-19 16:09:44.988
93.0, -179777.02525580232, -183620.07243872553, -183911.04744804473, -182721.24173894429, -185969.91133331196, -185972.23591473533, -180836.09561158367, -187500.02235174447, 0.0, 0.0, 0.0, 193.0, 0.0, 0.0, 0.0, 0.0, 0.0, 0.0, 0.0, 0.0, 0.0, 1.763582984992886E9, 0.0, 2025-11-19 16:09:44.992
94.0, -179774.47715693442, -183617.9490230023, -183908.85697708811, -182718.9395092654, -185967.43028967743, -185970.11249901206, -180833.16753306004, -187500.02235174447, 0.0, 0.0, 0.0, 193.0, 0.0, 0.0, 0.0, 0.0, 0.0, 0.0, 0.0, 0.0, 0.0, 1.7635829849979188E9, 0.0, 2025-11-19 16:09:44.997
95.0, -179772.95723831144, -183617.05495322408, -183907.9629073099, -182718.00073599824, -185966.2456472213, -185969.3972431895, -180831.73702141488, -187500.02235174447, 0.0, 0.0, 0.0, 193.0, 0.0, 0.0, 0.0, 0.0, 0.0, 0.0, 0.0, 0.0, 0.0, 1.7635829850019195E9, 0.0, 2025-11-19 16:09:45.001
96.0, -179770.65500863254, -183615.42327587883, -183906.37593345356, -182716.41376214192, -185964.43515592042, -185967.9443797999, -180829.54655045827, -187500.02235174447, 0.0, 0.0, 0.0, 193.0, 0.0, 0.0, 0.0, 0.0, 0.0, 0.0, 0.0, 0.0, 0.0, 1.7635829850058978E9, 0.0, 2025-11-19 16:09:45.005
97.0, -179766.89991556405, -183612.07051421053, -183902.97846829635, -182713.128055707, -185960.88122855203, -185964.77043208724, -180825.56793994523, -187500.02235174447, 0.0, 0.0, 0.0, 193.0, 0.0, 0.0, 0.0, 0.0, 0.0, 0.0, 0.0, 0.0, 0.0, 1.7635829850089445E9, 0.0, 2025-11-19 16:09:45.008
98.0, -179766.51993590832, -183612.092865955, -183902.911413063, -182712.99394524028, -185960.68006285193, -185964.85983906506, -180824.85268412266, -187500.02235174447, 0.0, 0.0, 0.0, 193.0, 0.0, 0.0, 0.0, 0.0, 0.0, 0.0, 0.0, 0.0, 0.0, 1.7635829850129304E9, 0.0, 2025-11-19 16:09:45.012
99.0, -179766.5422876528, -183612.67401131082, -183903.5596136522, -182713.619794085, -185961.08239425212, -185965.5974466321, -180824.78562888928, -187500.02235174447, 0.0, 0.0, 0.0, 193.0, 0.0, 0.0, 0.0, 0.0, 0.0, 0.0, 0.0, 0.0, 0.0, 1.7635829850169623E9, 0.0, 2025-11-19 16:09:45.016
100.0, -179768.5762963982, -183615.15505494538, -183906.1077125201, -182716.0337824862, -185963.56343788665, -185968.45846992236, -180826.931396357, -187500.02235174447, 0.0, 0.0, 0.0, 193.0, 0.0, 0.0, 0.0, 0.0, 0.0, 0.0, 0.0, 0.0, 0.0, 1.7635829850209775E9, 0.0, 2025-11-19 16:09:45.020
101.0, -179767.41400568653, -183614.4397991228, -183905.39245669753, -182715.25147143024, -185962.57996113063, -185967.899676311, -180825.47853296742, -187500.02235174447, 0.0, 0.0, 0.0, 193.0, 0.0, 0.0, 0.0, 0.0, 0.0, 0.0, 0.0, 0.0, 0.0, 1.763582985025971E9, 0.0, 2025-11-19 16:09:45.025
102.0, -179764.8882585631, -183612.31638339953, -183903.22433748536, -182713.03864872918, -185960.18832447391, -185965.7986123322, -180822.57280618823, -187500.02235174447, 0.0, 0.0, 0.0, 193.0, 0.0, 0.0, 0.0, 0.0, 0.0, 0.0, 0.0, 0.0, 0.0, 1.7635829850299768E9, 0.0, 2025-11-19 16:09:45.029
103.0, -179762.25075271737, -183610.1929676763, -183900.98916303983, -182710.84817777257, -185957.8413913061, -185963.83165882013, -180819.84589336466, -187500.02235174447, 0.0, 0.0, 0.0, 193.0, 0.0, 0.0, 0.0, 0.0, 0.0, 0.0, 0.0, 0.0, 0.0, 1.7635829850339537E9, 0.0, 2025-11-19 16:09:45.033
104.0, -179758.89799104907, -183607.4437031083, -183898.2175467274, -182708.18832018238, -185954.98036801582, -185961.30591169666, -180816.60489041865, -187500.02235174447, 0.0, 0.0, 0.0, 193.0, 0.0, 0.0, 0.0, 0.0, 0.0, 0.0, 0.0, 0.0, 0.0, 1.7635829850370347E9, 0.0, 2025-11-19 16:09:45.037
105.0, -179758.5850666267, -183607.86838625293, -183898.61987812756, -182708.5235963492, -185955.136830227, -185961.8423535636, -180816.42607646302, -187500.02235174447, 0.0, 0.0, 0.0, 193.0, 0.0, 0.0, 0.0, 0.0, 0.0, 0.0, 0.0, 0.0, 0.0, 1.763582985041016E9, 0.0, 2025-11-19 16:09:45.041
106.0, -179756.79692707027, -183606.4825780967, -183897.27877346025, -182707.1154364485, -185953.6392633485, -185960.52360064074, -180814.25795725084, -187500.02235174447, 0.0, 0.0, 0.0, 193.0, 0.0, 0.0, 0.0, 0.0, 0.0, 0.0, 0.0, 0.0, 0.0, 1.7635829850449953E9, 0.0, 2025-11-19 16:09:45.044
107.0, -179756.2828369478, -183606.34846762998, -183897.12231124906, -182706.84721551507, -185953.25928369275, -185960.45654540736, -180813.58740491717, -187500.02235174447, 0.0, 0.0, 0.0, 193.0, 0.0, 0.0, 0.0, 0.0, 0.0, 0.0, 0.0, 0.0, 0.0, 1.763582985049012E9, 0.0, 2025-11-19 16:09:45.049
108.0, -179755.45582240293, -183606.10259844098, -183896.87644206005, -182706.60134632606, -185952.92400752593, -185960.5012488963, -180812.91685258353, -187500.02235174447, 0.0, 0.0, 0.0, 193.0, 0.0, 0.0, 0.0, 0.0, 0.0, 0.0, 0.0, 0.0, 0.0, 1.7635829850540512E9, 0.0, 2025-11-19 16:09:45.054
109.0, -179752.8853717906, -183603.95683097327, -183894.8647850591, -182704.50028234726, -185950.66648133594, -185958.62370236203, -180810.2346432489, -187500.02235174447, 0.0, 0.0, 0.0, 193.0, 0.0, 0.0, 0.0, 0.0, 0.0, 0.0, 0.0, 0.0, 0.0, 1.7635829850580688E9, 0.0, 2025-11-19 16:09:45.058
110.0, -179753.3324066797, -183604.87325249592, -183895.78120658174, -182705.30494514763, -185951.3370336696, -185959.62953086253, -180810.34640197115, -187500.02235174447, 0.0, 0.0, 0.0, 193.0, 0.0, 0.0, 0.0, 0.0, 0.0, 0.0, 0.0, 0.0, 0.0, 1.7635829850610669E9, 0.0, 2025-11-19 16:09:45.061
111.0, -179753.0865374907, -183604.96265947373, -183895.87061355956, -182705.4167038699, -185951.22527494733, -185959.9424552849, -180809.74290487086, -187500.02235174447, 0.0, 0.0, 0.0, 193.0, 0.0, 0.0, 0.0, 0.0, 0.0, 0.0, 0.0, 0.0, 0.0, 1.7635829850650036E9, 0.0, 2025-11-19 16:09:45.065
112.0, -179750.65019734506, -183602.97335421722, -183893.88130830304, -182703.5168055912, -185949.146562713, -185958.17666747293, -180807.3289164697, -187500.02235174447, 0.0, 0.0, 0.0, 193.0, 0.0, 0.0, 0.0, 0.0, 0.0, 0.0, 0.0, 0.0, 0.0, 1.7635829850690467E9, 0.0, 2025-11-19 16:09:45.069
113.0, -179748.05739498825, -183600.96169721626, -183891.86965130208, -182701.43809335688, -185946.91138826744, -185956.43323140542, -180804.84787283515, -187500.02235174447, 0.0, 0.0, 0.0, 193.0, 0.0, 0.0, 0.0, 0.0, 0.0, 0.0, 0.0, 0.0, 0.0, 1.7635829850733023E9, 0.0, 2025-11-19 16:09:45.073
114.0, -179746.44806938746, -183599.8888134824, -183890.68500884593, -182700.23109915628, -185945.6373388335, -185955.42740290493, -180802.99267804535, -187500.02235174447, 0.0, 0.0, 0.0, 193.0, 0.0, 0.0, 0.0, 0.0, 0.0, 0.0, 0.0, 0.0, 0.0, 1.763582985077083E9, 0.0, 2025-11-19 16:09:45.077
115.0, -179744.6152263421, -183598.592412304, -183889.38860766753, -182698.9123462334, -185944.07271672162, -185954.1980569599, -180800.89161406655, -187500.02235174447, 0.0, 0.0, 0.0, 193.0, 0.0, 0.0, 0.0, 0.0, 0.0, 0.0, 0.0, 0.0, 0.0, 1.763582985081032E9, 0.0, 2025-11-19 16:09:45.081
116.0, -179742.2682931743, -183596.67016228082, -183887.48870938882, -182696.99009621027, -185941.97165274282, -185952.52167612573, -180798.4329221765, -187500.02235174447, 0.0, 0.0, 0.0, 193.0, 0.0, 0.0, 0.0, 0.0, 0.0, 0.0, 0.0, 0.0, 0.0, 1.7635829850860476E9, 0.0, 2025-11-19 16:09:45.086
117.0, -179742.8270867857, -183597.69834252578, -183888.53924137822, -182698.0182764552, -185942.8433707766, -185953.77337381523, -180799.0364192768, -187500.02235174447, 0.0, 0.0, 0.0, 193.0, 0.0, 0.0, 0.0, 0.0, 0.0, 0.0, 0.0, 0.0, 0.0, 1.7635829850890625E9, 0.0, 2025-11-19 16:09:45.089
118.0, -179738.58025533918, -183593.7867872461, -183884.73944482082, -182694.1737764089, -185938.82005677462, -185950.06298423564, -180794.54371864127, -187500.02235174447, 0.0, 0.0, 0.0, 193.0, 0.0, 0.0, 0.0, 0.0, 0.0, 0.0, 0.0, 0.0, 0.0, 1.7635829850930786E9, 0.0, 2025-11-19 16:09:45.093
119.0, -179736.5685983382, -183592.26686862315, -183883.13011922003, -182692.60915429704, -185937.05426896267, -185948.61012084605, -180792.2191372179, -187500.02235174447, 0.0, 0.0, 0.0, 193.0, 0.0, 0.0, 0.0, 0.0, 0.0, 0.0, 0.0, 0.0, 0.0, 1.7635829850970814E9, 0.0, 2025-11-19 16:09:45.097
120.0, -179737.70853730544, -183594.0326564351, -183884.7617965653, -182694.19612815336, -185938.46242886336, -185950.4429638914, -180793.24731746284, -187500.02235174447, 0.0, 0.0, 0.0, 193.0, 0.0, 0.0, 0.0, 0.0, 0.0, 0.0, 0.0, 0.0, 0.0, 1.7635829851010957E9, 0.0, 2025-11-19 16:09:45.101
121.0, -179736.7697640383, -183593.65267677937, -183884.42652039844, -182693.8608519865, -185937.9930422298, -185950.2865016802, -180792.44265466247, -187500.02235174447, 0.0, 0.0, 0.0, 193.0, 0.0, 0.0, 0.0, 0.0, 0.0, 0.0, 0.0, 0.0, 0.0, 1.763582985105162E9, 0.0, 2025-11-19 16:09:45.105
122.0, -179734.8251622707, -183592.2221651342, -183883.04071224222, -182692.38563685247, -185936.383716629, -185949.01245224624, -180790.3639424281, -187500.02235174447, 0.0, 0.0, 0.0, 193.0, 0.0, 0.0, 0.0, 0.0, 0.0, 0.0, 0.0, 0.0, 0.0, 1.763582985109285E9, 0.0, 2025-11-19 16:09:45.109
123.0, -179730.57833082418, -183588.4223685768, -183879.21856394038, -182688.49643331725, -185932.27099564922, -185945.3467661556, -180785.84889004813, -187500.02235174447, 0.0, 0.0, 0.0, 193.0, 0.0, 0.0, 0.0, 0.0, 0.0, 0.0, 0.0, 0.0, 0.0, 1.7635829851141725E9, 0.0, 2025-11-19 16:09:45.114
124.0, -179729.05841220124, -183587.3271330985, -183878.0562732287, -182687.44590132785, -185931.0416497042, -185944.47504812182, -180784.1278057251, -187500.02235174447, 0.0, 0.0, 0.0, 193.0, 0.0, 0.0, 0.0, 0.0, 0.0, 0.0, 0.0, 0.0, 0.0, 1.7635829851171696E9, 0.0, 2025-11-19 16:09:45.117
125.0, -179730.64538605756, -183589.3387900995, -183880.22439244087, -182689.65872402894, -185933.142713683, -185946.889036523, -180785.8712417926, -187500.02235174447, 0.0, 0.0, 0.0, 193.0, 0.0, 0.0, 0.0, 0.0, 0.0, 0.0, 0.0, 0.0, 0.0, 1.7635829851211405E9, 0.0, 2025-11-19 16:09:45.121
126.0, -179729.05841220124, -183588.31060985455, -183879.24091568482, -182688.49643331725, -185931.9804229713, -185945.9949667448, -180784.2172127029, -187500.02235174447, 0.0, 0.0, 0.0, 193.0, 0.0, 0.0, 0.0, 0.0, 0.0, 0.0, 0.0, 0.0, 0.0, 1.7635829851251628E9, 0.0, 2025-11-19 16:09:45.125
127.0, -179727.42673485598, -183587.1259673984, -183877.8998110175, -182687.11062516103, -185930.46050434836, -185944.8326760331, -180782.2279074464, -187500.02235174447, 0.0, 0.0, 0.0, 193.0, 0.0, 0.0, 0.0, 0.0, 0.0, 0.0, 0.0, 0.0, 0.0, 1.7635829851291502E9, 0.0, 2025-11-19 16:09:45.129
128.0, -179725.45978134393, -183585.6284005199, -183876.4916511168, -182685.70246526034, -185928.873530492, -185943.5809783436, -180780.1268434676, -187500.02235174447, 0.0, 0.0, 0.0, 193.0, 0.0, 0.0, 0.0, 0.0, 0.0, 0.0, 0.0, 0.0, 0.0, 1.7635829851331902E9, 0.0, 2025-11-19 16:09:45.133
129.0, -179721.79409525325, -183582.56621152954, -183873.31770340417, -182682.55086929214, -185925.61017580156, -185940.71995505333, -180776.4611573769, -187500.02235174447, 0.0, 0.0, 0.0, 193.0, 0.0, 0.0, 0.0, 0.0, 0.0, 0.0, 0.0, 0.0, 0.0, 1.763582985137149E9, 0.0, 2025-11-19 16:09:45.137
130.0, -179721.74939176434, -183583.01324641865, -183873.72003480437, -182683.0202559257, -185925.9231002239, -185941.2787486647, -180776.34939865465, -187500.02235174447, 0.0, 0.0, 0.0, 193.0, 0.0, 0.0, 0.0, 0.0, 0.0, 0.0, 0.0, 0.0, 0.0, 1.7635829851411533E9, 0.0, 2025-11-19 16:09:45.141
131.0, -179719.80478999674, -183581.60508651796, -183872.4012818815, -182681.52268904718, -185924.20201590087, -185939.91529225293, -180774.24833467585, -187500.02235174447, 0.0, 0.0, 0.0, 193.0, 0.0, 0.0, 0.0, 0.0, 0.0, 0.0, 0.0, 0.0, 0.0, 1.7635829851441562E9, 0.0, 2025-11-19 16:09:45.144
132.0, -179720.02830744127, -183582.16388012934, -183872.91537200398, -182681.90266870294, -185924.51494032325, -185940.45173411988, -180774.00246548685, -187500.02235174447, 0.0, 0.0, 0.0, 193.0, 0.0, 0.0, 0.0, 0.0, 0.0, 0.0, 0.0, 0.0, 0.0, 1.7635829851491516E9, 0.0, 2025-11-19 16:09:45.149
133.0, -179718.64249928505, -183581.24745860667, -183872.06600571467, -182681.12035764699, -185923.50911182276, -185939.87058876402, -180772.6166573306, -187500.02235174447, 0.0, 0.0, 0.0, 193.0, 0.0, 0.0, 0.0, 0.0, 0.0, 0.0, 0.0, 0.0, 0.0, 1.7635829851531756E9, 0.0, 2025-11-19 16:09:45.153
134.0, -179718.12840916257, -183581.40392081786, -183872.1554126925, -182681.27681985818, -185923.55381531166, -185940.3846788865, -180772.30373290824, -187500.02235174447, 0.0, 0.0, 0.0, 193.0, 0.0, 0.0, 0.0, 0.0, 0.0, 0.0, 0.0, 0.0, 0.0, 1.7635829851572318E9, 0.0, 2025-11-19 16:09:45.157
135.0, -179717.3684498511, -183581.15805162885, -183871.93189524792, -182680.85213671354, -185922.95031821137, -185940.16116144197, -180771.25320091884, -187500.02235174447, 0.0, 0.0, 0.0, 193.0, 0.0, 0.0, 0.0, 0.0, 0.0, 0.0, 0.0, 0.0, 0.0, 1.7635829851612325E9, 0.0, 2025-11-19 16:09:45.161
136.0, -179715.89323471705, -183580.1745748728, -183870.92606674746, -182679.73454949076, -185921.5868617996, -185939.11062945257, -180769.48741310686, -187500.02235174447, 0.0, 0.0, 0.0, 193.0, 0.0, 0.0, 0.0, 0.0, 0.0, 0.0, 0.0, 0.0, 0.0, 1.7635829851651828E9, 0.0, 2025-11-19 16:09:45.165
137.0, -179714.55213004973, -183579.2805050946, -183869.96494173587, -182678.88518320146, -185920.67044027694, -185938.41772537443, -180768.10160495064, -187500.02235174447, 0.0, 0.0, 0.0, 193.0, 0.0, 0.0, 0.0, 0.0, 0.0, 0.0, 0.0, 0.0, 0.0, 1.763582985169197E9, 0.0, 2025-11-19 16:09:45.169
138.0, -179713.41219108252, -183578.76641497214, -183869.4508516134, -182678.37109307898, -185919.9775361988, -185938.21655967433, -180767.07342470568, -187500.02235174447, 0.0, 0.0, 0.0, 193.0, 0.0, 0.0, 0.0, 0.0, 0.0, 0.0, 0.0, 0.0, 0.0, 1.7635829851722033E9, 0.0, 2025-11-19 16:09:45.172
139.0, -179711.53464454826, -183577.31355158254, -183868.10974694608, -182676.87352620048, -185918.39056234248, -185936.9425102404, -180764.99471247135, -187500.02235174447, 0.0, 0.0, 0.0, 193.0, 0.0, 0.0, 0.0, 0.0, 0.0, 0.0, 0.0, 0.0, 0.0, 1.7635829851762056E9, 0.0, 2025-11-19 16:09:45.176
140.0, -179709.0759526582, -183575.25719109265, -183866.00868296728, -182674.75011047724, -185916.1330361525, -185935.0426119617, -180762.22309615888, -187500.02235174447, 0.0, 0.0, 0.0, 193.0, 0.0, 0.0, 0.0, 0.0, 0.0, 0.0, 0.0, 0.0, 0.0, 1.7635829851812005E9, 0.0, 2025-11-19 16:09:45.181
141.0, -179708.13717939105, -183574.72074922573, -183865.5392963337, -182674.25837209923, -185915.44013207438, -185934.6849840504, -180761.10550893613, -187500.02235174447, 0.0, 0.0, 0.0, 193.0, 0.0, 0.0, 0.0, 0.0, 0.0, 0.0, 0.0, 0.0, 0.0, 1.763582985185228E9, 0.0, 2025-11-19 16:09:45.185
142.0, -179706.39374332354, -183573.58081025849, -183864.37700562205, -182673.00667440973, -185914.07667566263, -185933.72385903882, -180759.42912810197, -187500.02235174447, 0.0, 0.0, 0.0, 193.0, 0.0, 0.0, 0.0, 0.0, 0.0, 0.0, 0.0, 0.0, 0.0, 1.7635829851892376E9, 0.0, 2025-11-19 16:09:45.189
143.0, -179705.65613575652, -183573.29023758057, -183864.01937771076, -182672.62669475397, -185913.60728902905, -185933.634452061, -180758.53505832376, -187500.02235174447, 0.0, 0.0, 0.0, 193.0, 0.0, 0.0, 0.0, 0.0, 0.0, 0.0, 0.0, 0.0, 0.0, 1.7635829851932478E9, 0.0, 2025-11-19 16:09:45.193
144.0, -179704.2703276003, -183572.41851954683, -183863.01354921027, -182671.6208662535, -185912.377943084, -185932.7403822828, -180756.83632574516, -187500.02235174447, 0.0, 0.0, 0.0, 193.0, 0.0, 0.0, 0.0, 0.0, 0.0, 0.0, 0.0, 0.0, 0.0, 1.7635829851972315E9, 0.0, 2025-11-19 16:09:45.197
145.0, -179703.15274037753, -183571.79267070207, -183862.43240385444, -182670.99501740874, -185911.57328028363, -185932.3380508826, -180755.58462805566, -187500.02235174447, 0.0, 0.0, 0.0, 193.0, 0.0, 0.0, 0.0, 0.0, 0.0, 0.0, 0.0, 0.0, 0.0, 1.763582985200242E9, 0.0, 2025-11-19 16:09:45.200
146.0, -179702.19161536594, -183571.36798755743, -183862.00772070978, -182670.54798251964, -185911.01448667224, -185932.1368851825, -180754.71291002192, -187500.02235174447, 0.0, 0.0, 0.0, 193.0, 0.0, 0.0, 0.0, 0.0, 0.0, 0.0, 0.0, 0.0, 0.0, 1.7635829852042613E9, 0.0, 2025-11-19 16:09:45.204
147.0, -179700.671696743, -183570.31745556803, -183861.06894744266, -182669.54215401915, -185909.87454770503, -185931.22046365982, -180753.10358442113, -187500.02235174447, 0.0, 0.0, 0.0, 193.0, 0.0, 0.0, 0.0, 0.0, 0.0, 0.0, 0.0, 0.0, 0.0, 1.7635829852092595E9, 0.0, 2025-11-19 16:09:45.209
148.0, -179701.69987698793, -183571.83737419097, -183862.5888660656, -182670.90561043093, -185911.17094888343, -185932.7850857717, -180753.79648849924, -187500.02235174447, 0.0, 0.0, 0.0, 193.0, 0.0, 0.0, 0.0, 0.0, 0.0, 0.0, 0.0, 0.0, 0.0, 1.7635829852133083E9, 0.0, 2025-11-19 16:09:45.213
149.0, -179699.30824033121, -183569.75866195664, -183860.55485732018, -182668.84924994103, -185908.9804779268, -185930.99694621528, -180751.13663090905, -187500.02235174447, 0.0, 0.0, 0.0, 193.0, 0.0, 0.0, 0.0, 0.0, 0.0, 0.0, 0.0, 0.0, 0.0, 1.7635829852172716E9, 0.0, 2025-11-19 16:09:45.217
150.0, -179696.4248652965, -183567.43408053328, -183858.27497938575, -182666.5693720066, -185906.49943429226, -185928.91823398095, -180748.3650145966, -187500.02235174447, 0.0, 0.0, 0.0, 193.0, 0.0, 0.0, 0.0, 0.0, 0.0, 0.0, 0.0, 0.0, 0.0, 1.763582985221282E9, 0.0, 2025-11-19 16:09:45.221
151.0, -179692.93799316144, -183564.50600200964, -183855.3469008621, -182663.50718301622, -185903.34783832406, -185926.19132115738, -180744.85579071712, -187500.02235174447, 0.0, 0.0, 0.0, 193.0, 0.0, 0.0, 0.0, 0.0, 0.0, 0.0, 0.0, 0.0, 0.0, 1.7635829852242732E9, 0.0, 2025-11-19 16:09:45.224
152.0, -179692.17803384998, -183564.23778107617, -183855.03397643974, -182663.10485161602, -185902.74434122376, -185925.85604499056, -180743.84996221663, -187500.02235174447, 0.0, 0.0, 0.0, 193.0, 0.0, 0.0, 0.0, 0.0, 0.0, 0.0, 0.0, 0.0, 0.0, 1.763582985228273E9, 0.0, 2025-11-19 16:09:45.228
153.0, -179691.6639437275, -183564.19307758726, -183854.96692120636, -182663.14955510493, -185902.4314168014, -185925.878396735, -180743.1123546496, -187500.02235174447, 0.0, 0.0, 0.0, 193.0, 0.0, 0.0, 0.0, 0.0, 0.0, 0.0, 0.0, 0.0, 0.0, 1.7635829852323685E9, 0.0, 2025-11-19 16:09:45.232
154.0, -179689.83110068218, -183562.94137989776, -183853.73757526133, -182661.83080218206, -185901.06796038963, -185924.8725682345, -180741.39127032654, -187500.02235174447, 0.0, 0.0, 0.0, 193.0, 0.0, 0.0, 0.0, 0.0, 0.0, 0.0, 0.0, 0.0, 0.0, 1.7635829852373457E9, 0.0, 2025-11-19 16:09:45.237
155.0, -179688.6688099705, -183562.24847581965, -183853.0446711832, -182661.20495333732, -185900.35270456705, -185924.5372920677, -180740.20662787042, -187500.02235174447, 0.0, 0.0, 0.0, 193.0, 0.0, 0.0, 0.0, 0.0, 0.0, 0.0, 0.0, 0.0, 0.0, 1.76358298524131E9, 0.0, 2025-11-19 16:09:45.241
